PE UV       SUBTECH     SPECTRUM    ASCII       PEDS        4.00        
   -1
normSep184-2-p5SDS-1xdil.asc
12/06/06
15:26:33.00
12/06/06
15:34:19.00
Analyst

200.000000
1
Lambda 950
950N7030103
PerkinElmer UV WinLab 6.0.3.0730 / 1.61.00 Lambda 900

0
0
3350/servo 860.8/2
0
0
UV/VIS
1
1
1
RBeamAtt,SBeamAtt,uv/vis/nir detector
0
0
0
0
Program
Program
3350/servo 860.8/2
3350/0.2 860.8/0.2
3350/0.2 860.8/0.2
0
1
 
 
 
0
 
860.8
319.2
860.8
Front
100
 
S:100 R:100
 
0
0
0
 
0
 
 
 
0
 
 
0
0
0
0
0
 
 
 
 
0
0


#HDR
-1
-1
#GR
nm
A
1.0
0.0
1350.000000
-1.000000
1151
8
6.870984
0.490911
#DATA
1350.000000	0.490911
1349.000000	0.495602
1348.000000	0.508674
1347.000000	0.516582
1346.000000	0.522329
1345.000000	0.525593
1344.000000	0.524944
1343.000000	0.523781
1342.000000	0.526315
1341.000000	0.529884
1340.000000	0.532507
1339.000000	0.534973
1338.000000	0.540258
1337.000000	0.542521
1336.000000	0.543439
1335.000000	0.547913
1334.000000	0.550098
1333.000000	0.553860
1332.000000	0.556591
1331.000000	0.558388
1330.000000	0.561496
1329.000000	0.565145
1328.000000	0.566121
1327.000000	0.567817
1326.000000	0.569427
1325.000000	0.571281
1324.000000	0.574218
1323.000000	0.577937
1322.000000	0.581121
1321.000000	0.583194
1320.000000	0.585030
1319.000000	0.587489
1318.000000	0.587508
1317.000000	0.588972
1316.000000	0.591390
1315.000000	0.592891
1314.000000	0.595864
1313.000000	0.597962
1312.000000	0.600143
1311.000000	0.600114
1310.000000	0.599974
1309.000000	0.603317
1308.000000	0.603394
1307.000000	0.605614
1306.000000	0.606320
1305.000000	0.606924
1304.000000	0.608577
1303.000000	0.610612
1302.000000	0.611871
1301.000000	0.612848
1300.000000	0.613983
1299.000000	0.614761
1298.000000	0.616091
1297.000000	0.617581
1296.000000	0.616816
1295.000000	0.617007
1294.000000	0.619183
1293.000000	0.620260
1292.000000	0.620339
1291.000000	0.621468
1290.000000	0.622949
1289.000000	0.624507
1288.000000	0.625437
1287.000000	0.625852
1286.000000	0.625952
1285.000000	0.626411
1284.000000	0.627296
1283.000000	0.629077
1282.000000	0.629757
1281.000000	0.631558
1280.000000	0.633271
1279.000000	0.633188
1278.000000	0.633703
1277.000000	0.635288
1276.000000	0.635659
1275.000000	0.636348
1274.000000	0.637401
1273.000000	0.638995
1272.000000	0.639023
1271.000000	0.639541
1270.000000	0.639551
1269.000000	0.640656
1268.000000	0.641917
1267.000000	0.643516
1266.000000	0.646026
1265.000000	0.647350
1264.000000	0.648061
1263.000000	0.648010
1262.000000	0.647465
1261.000000	0.648659
1260.000000	0.649164
1259.000000	0.649036
1258.000000	0.649981
1257.000000	0.651523
1256.000000	0.652607
1255.000000	0.654282
1254.000000	0.655000
1253.000000	0.654468
1252.000000	0.654912
1251.000000	0.655452
1250.000000	0.656249
1249.000000	0.657363
1248.000000	0.658576
1247.000000	0.659845
1246.000000	0.661047
1245.000000	0.662738
1244.000000	0.665413
1243.000000	0.667293
1242.000000	0.668091
1241.000000	0.668443
1240.000000	0.669962
1239.000000	0.672563
1238.000000	0.673772
1237.000000	0.675161
1236.000000	0.677027
1235.000000	0.678822
1234.000000	0.680700
1233.000000	0.682469
1232.000000	0.683927
1231.000000	0.684884
1230.000000	0.685042
1229.000000	0.686098
1228.000000	0.687257
1227.000000	0.687221
1226.000000	0.687378
1225.000000	0.688709
1224.000000	0.691402
1223.000000	0.693162
1222.000000	0.693928
1221.000000	0.694535
1220.000000	0.695121
1219.000000	0.696785
1218.000000	0.698257
1217.000000	0.698863
1216.000000	0.698879
1215.000000	0.699870
1214.000000	0.701358
1213.000000	0.702576
1212.000000	0.703402
1211.000000	0.705834
1210.000000	0.708101
1209.000000	0.709010
1208.000000	0.709658
1207.000000	0.711046
1206.000000	0.713999
1205.000000	0.714756
1204.000000	0.712692
1203.000000	0.713113
1202.000000	0.716675
1201.000000	0.719274
1200.000000	0.720231
1199.000000	0.719203
1198.000000	0.718844
1197.000000	0.719574
1196.000000	0.719049
1195.000000	0.718318
1194.000000	0.715361
1193.000000	0.699890
1192.000000	0.677384
1191.000000	0.671162
1190.000000	0.679013
1189.000000	0.699837
1188.000000	0.708824
1187.000000	0.710158
1186.000000	0.711780
1185.000000	0.712365
1184.000000	0.712316
1183.000000	0.711743
1182.000000	0.711014
1181.000000	0.710491
1180.000000	0.709581
1179.000000	0.709323
1178.000000	0.711996
1177.000000	0.712944
1176.000000	0.711320
1175.000000	0.709158
1174.000000	0.706914
1173.000000	0.705327
1172.000000	0.705040
1171.000000	0.704066
1170.000000	0.702144
1169.000000	0.698026
1168.000000	0.693359
1167.000000	0.685306
1166.000000	0.676843
1165.000000	0.674458
1164.000000	0.670084
1163.000000	0.668447
1162.000000	0.668218
1161.000000	0.670667
1160.000000	0.670409
1159.000000	0.669976
1158.000000	0.668662
1157.000000	0.665083
1156.000000	0.658811
1155.000000	0.656798
1154.000000	0.656623
1153.000000	0.655260
1152.000000	0.654762
1151.000000	0.655596
1150.000000	0.655364
1149.000000	0.659755
1148.000000	0.668351
1147.000000	0.673107
1146.000000	0.673155
1145.000000	0.677036
1144.000000	0.679747
1143.000000	0.681557
1142.000000	0.685447
1141.000000	0.688496
1140.000000	0.690035
1139.000000	0.693703
1138.000000	0.692971
1137.000000	0.698450
1136.000000	0.699440
1135.000000	0.700597
1134.000000	0.702602
1133.000000	0.707378
1132.000000	0.710087
1131.000000	0.708832
1130.000000	0.712175
1129.000000	0.712511
1128.000000	0.714373
1127.000000	0.716976
1126.000000	0.719032
1125.000000	0.722684
1124.000000	0.725260
1123.000000	0.724789
1122.000000	0.728720
1121.000000	0.730765
1120.000000	0.729400
1119.000000	0.730895
1118.000000	0.735343
1117.000000	0.738928
1116.000000	0.742017
1115.000000	0.746390
1114.000000	0.750105
1113.000000	0.753547
1112.000000	0.756535
1111.000000	0.759256
1110.000000	0.762337
1109.000000	0.765892
1108.000000	0.769162
1107.000000	0.772468
1106.000000	0.777128
1105.000000	0.779351
1104.000000	0.783509
1103.000000	0.787819
1102.000000	0.792012
1101.000000	0.795252
1100.000000	0.800215
1099.000000	0.804487
1098.000000	0.808332
1097.000000	0.813517
1096.000000	0.817423
1095.000000	0.822390
1094.000000	0.827781
1093.000000	0.832021
1092.000000	0.836945
1091.000000	0.841142
1090.000000	0.846071
1089.000000	0.851371
1088.000000	0.856649
1087.000000	0.861379
1086.000000	0.866848
1085.000000	0.872941
1084.000000	0.877672
1083.000000	0.883074
1082.000000	0.888893
1081.000000	0.893993
1080.000000	0.899141
1079.000000	0.904860
1078.000000	0.909861
1077.000000	0.915220
1076.000000	0.920609
1075.000000	0.926478
1074.000000	0.931756
1073.000000	0.938292
1072.000000	0.944493
1071.000000	0.950081
1070.000000	0.955194
1069.000000	0.961081
1068.000000	0.966811
1067.000000	0.972400
1066.000000	0.979457
1065.000000	0.986182
1064.000000	0.994050
1063.000000	1.000667
1062.000000	1.006648
1061.000000	1.013606
1060.000000	1.021332
1059.000000	1.029282
1058.000000	1.038250
1057.000000	1.045393
1056.000000	1.054996
1055.000000	1.062811
1054.000000	1.072133
1053.000000	1.082507
1052.000000	1.091020
1051.000000	1.101081
1050.000000	1.110746
1049.000000	1.121778
1048.000000	1.131559
1047.000000	1.141891
1046.000000	1.153562
1045.000000	1.165191
1044.000000	1.176157
1043.000000	1.187018
1042.000000	1.198159
1041.000000	1.209158
1040.000000	1.220017
1039.000000	1.231196
1038.000000	1.242592
1037.000000	1.252351
1036.000000	1.262104
1035.000000	1.271664
1034.000000	1.281900
1033.000000	1.289581
1032.000000	1.297634
1031.000000	1.306139
1030.000000	1.312029
1029.000000	1.316811
1028.000000	1.321811
1027.000000	1.325308
1026.000000	1.327678
1025.000000	1.328869
1024.000000	1.327986
1023.000000	1.327799
1022.000000	1.327183
1021.000000	1.324425
1020.000000	1.320160
1019.000000	1.312866
1018.000000	1.305383
1017.000000	1.299617
1016.000000	1.290880
1015.000000	1.283194
1014.000000	1.271789
1013.000000	1.260279
1012.000000	1.250188
1011.000000	1.238511
1010.000000	1.227669
1009.000000	1.212729
1008.000000	1.200658
1007.000000	1.187884
1006.000000	1.174132
1005.000000	1.161600
1004.000000	1.146782
1003.000000	1.135600
1002.000000	1.123426
1001.000000	1.109870
1000.000000	1.098503
999.000000	1.085730
998.000000	1.074690
997.000000	1.062835
996.000000	1.048942
995.000000	1.038770
994.000000	1.031572
993.000000	1.020973
992.000000	1.008982
991.000000	0.999052
990.000000	0.990030
989.000000	0.982995
988.000000	0.975832
987.000000	0.967538
986.000000	0.959141
985.000000	0.951790
984.000000	0.944893
983.000000	0.938896
982.000000	0.933717
981.000000	0.927410
980.000000	0.920037
979.000000	0.916156
978.000000	0.913530
977.000000	0.909530
976.000000	0.905064
975.000000	0.900683
974.000000	0.897737
973.000000	0.894887
972.000000	0.891232
971.000000	0.888989
970.000000	0.886561
969.000000	0.883503
968.000000	0.879690
967.000000	0.880172
966.000000	0.879492
965.000000	0.876639
964.000000	0.873376
963.000000	0.874242
962.000000	0.874563
961.000000	0.872884
960.000000	0.871603
959.000000	0.869790
958.000000	0.871980
957.000000	0.873597
956.000000	0.874126
955.000000	0.874766
954.000000	0.875300
953.000000	0.876208
952.000000	0.876459
951.000000	0.877284
950.000000	0.877985
949.000000	0.878724
948.000000	0.879432
947.000000	0.880211
946.000000	0.881238
945.000000	0.881856
944.000000	0.882592
943.000000	0.883653
942.000000	0.884840
941.000000	0.886042
940.000000	0.886918
939.000000	0.887415
938.000000	0.889879
937.000000	0.890499
936.000000	0.890062
935.000000	0.893529
934.000000	0.897639
933.000000	0.899564
932.000000	0.899896
931.000000	0.901284
930.000000	0.901387
929.000000	0.902204
928.000000	0.906061
927.000000	0.909672
926.000000	0.909894
925.000000	0.910974
924.000000	0.910083
923.000000	0.914020
922.000000	0.916797
921.000000	0.918246
920.000000	0.917251
919.000000	0.919076
918.000000	0.923043
917.000000	0.925627
916.000000	0.924046
915.000000	0.923727
914.000000	0.924459
913.000000	0.926271
912.000000	0.929098
911.000000	0.929309
910.000000	0.929891
909.000000	0.931368
908.000000	0.929812
907.000000	0.931866
906.000000	0.932814
905.000000	0.933668
904.000000	0.932967
903.000000	0.933218
902.000000	0.934171
901.000000	0.935118
900.000000	0.932508
899.000000	0.934826
898.000000	0.935312
897.000000	0.936953
896.000000	0.934336
895.000000	0.935956
894.000000	0.934693
893.000000	0.935457
892.000000	0.936005
891.000000	0.937268
890.000000	0.934626
889.000000	0.936719
888.000000	0.936346
887.000000	0.937977
886.000000	0.937944
885.000000	0.935052
884.000000	0.935967
883.000000	0.937923
882.000000	0.937665
881.000000	0.937496
880.000000	0.934640
879.000000	0.935073
878.000000	0.936223
877.000000	0.936140
876.000000	0.938157
875.000000	0.933573
874.000000	0.934083
873.000000	0.934692
872.000000	0.934520
871.000000	0.932728
870.000000	0.932461
869.000000	0.932748
868.000000	0.932907
867.000000	0.932415
866.000000	0.927825
865.000000	0.930428
864.000000	0.929951
863.000000	0.927187
862.000000	0.927845
861.000000	0.930108
860.000000	0.929492
859.000000	0.960292
858.000000	0.958541
857.000000	0.956928
856.000000	0.956636
855.000000	0.957327
854.000000	0.958386
853.000000	0.956845
852.000000	0.955767
851.000000	0.957208
850.000000	0.956926
849.000000	0.955651
848.000000	0.955073
847.000000	0.956270
846.000000	0.956030
845.000000	0.954563
844.000000	0.955209
843.000000	0.955188
842.000000	0.953803
841.000000	0.955686
840.000000	0.955339
839.000000	0.953021
838.000000	0.954682
837.000000	0.956153
836.000000	0.955297
835.000000	0.955375
834.000000	0.955901
833.000000	0.957179
832.000000	0.957003
831.000000	0.957078
830.000000	0.958820
829.000000	0.958734
828.000000	0.958863
827.000000	0.960351
826.000000	0.960885
825.000000	0.960779
824.000000	0.961950
823.000000	0.961787
822.000000	0.962686
821.000000	0.962079
820.000000	0.965055
819.000000	0.965104
818.000000	0.965090
817.000000	0.965230
816.000000	0.967139
815.000000	0.966740
814.000000	0.967391
813.000000	0.968785
812.000000	0.969900
811.000000	0.969413
810.000000	0.972221
809.000000	0.972475
808.000000	0.973258
807.000000	0.973023
806.000000	0.973293
805.000000	0.974983
804.000000	0.975777
803.000000	0.976966
802.000000	0.977928
801.000000	0.978181
800.000000	0.979211
799.000000	0.980242
798.000000	0.981679
797.000000	0.982459
796.000000	0.983505
795.000000	0.983637
794.000000	0.985608
793.000000	0.986990
792.000000	0.987174
791.000000	0.987529
790.000000	0.988975
789.000000	0.990226
788.000000	0.992676
787.000000	0.993573
786.000000	0.993286
785.000000	0.994653
784.000000	0.996532
783.000000	0.996239
782.000000	0.998410
781.000000	1.000442
780.000000	1.000000
779.000000	1.002044
778.000000	1.004222
777.000000	1.005086
776.000000	1.005461
775.000000	1.005949
774.000000	1.007652
773.000000	1.009558
772.000000	1.009294
771.000000	1.010255
770.000000	1.013046
769.000000	1.015042
768.000000	1.015521
767.000000	1.016658
766.000000	1.017046
765.000000	1.018374
764.000000	1.020209
763.000000	1.021152
762.000000	1.021567
761.000000	1.024000
760.000000	1.026288
759.000000	1.027374
758.000000	1.029032
757.000000	1.029482
756.000000	1.031121
755.000000	1.033592
754.000000	1.034703
753.000000	1.035822
752.000000	1.037589
751.000000	1.039107
750.000000	1.040762
749.000000	1.043374
748.000000	1.045093
747.000000	1.046118
746.000000	1.047752
745.000000	1.049121
744.000000	1.050816
743.000000	1.052423
742.000000	1.053775
741.000000	1.055287
740.000000	1.057072
739.000000	1.059580
738.000000	1.061688
737.000000	1.062954
736.000000	1.064186
735.000000	1.065999
734.000000	1.067623
733.000000	1.069123
732.000000	1.071170
731.000000	1.073050
730.000000	1.074130
729.000000	1.076108
728.000000	1.078727
727.000000	1.080386
726.000000	1.081820
725.000000	1.083750
724.000000	1.084847
723.000000	1.086667
722.000000	1.089166
721.000000	1.090713
720.000000	1.092472
719.000000	1.095141
718.000000	1.096630
717.000000	1.098725
716.000000	1.100849
715.000000	1.103184
714.000000	1.104970
713.000000	1.107144
712.000000	1.108868
711.000000	1.111138
710.000000	1.113882
709.000000	1.116276
708.000000	1.119504
707.000000	1.122317
706.000000	1.124109
705.000000	1.126944
704.000000	1.130198
703.000000	1.133201
702.000000	1.136437
701.000000	1.139371
700.000000	1.141528
699.000000	1.145223
698.000000	1.149369
697.000000	1.152481
696.000000	1.155138
695.000000	1.158730
694.000000	1.162227
693.000000	1.166270
692.000000	1.169922
691.000000	1.173588
690.000000	1.176866
689.000000	1.179933
688.000000	1.183614
687.000000	1.186188
686.000000	1.189690
685.000000	1.193171
684.000000	1.196787
683.000000	1.199480
682.000000	1.203064
681.000000	1.206161
680.000000	1.209595
679.000000	1.213722
678.000000	1.216514
677.000000	1.219179
676.000000	1.222627
675.000000	1.225304
674.000000	1.229164
673.000000	1.231843
672.000000	1.235804
671.000000	1.238318
670.000000	1.241276
669.000000	1.242915
668.000000	1.245329
667.000000	1.248234
666.000000	1.250702
665.000000	1.252554
664.000000	1.254115
663.000000	1.255707
662.000000	1.258240
661.000000	1.260073
660.000000	1.261381
659.000000	1.261956
658.000000	1.263670
657.000000	1.264732
656.000000	1.265906
655.000000	1.266978
654.000000	1.267800
653.000000	1.268588
652.000000	1.270680
651.000000	1.272335
650.000000	1.273284
649.000000	1.273713
648.000000	1.277595
647.000000	1.278613
646.000000	1.281066
645.000000	1.282601
644.000000	1.285523
643.000000	1.287458
642.000000	1.289925
641.000000	1.293405
640.000000	1.296894
639.000000	1.298653
638.000000	1.302035
637.000000	1.306843
636.000000	1.310619
635.000000	1.314916
634.000000	1.318517
633.000000	1.322752
632.000000	1.328225
631.000000	1.332937
630.000000	1.337850
629.000000	1.343749
628.000000	1.349392
627.000000	1.354086
626.000000	1.360722
625.000000	1.367145
624.000000	1.374119
623.000000	1.380864
622.000000	1.388356
621.000000	1.395129
620.000000	1.403323
619.000000	1.410477
618.000000	1.418296
617.000000	1.425866
616.000000	1.435440
615.000000	1.442401
614.000000	1.450936
613.000000	1.459403
612.000000	1.467798
611.000000	1.476457
610.000000	1.485485
609.000000	1.492201
608.000000	1.500167
607.000000	1.508627
606.000000	1.517258
605.000000	1.525079
604.000000	1.532978
603.000000	1.539922
602.000000	1.546939
601.000000	1.554711
600.000000	1.562117
599.000000	1.567698
598.000000	1.574694
597.000000	1.580361
596.000000	1.586844
595.000000	1.592642
594.000000	1.597529
593.000000	1.603358
592.000000	1.608575
591.000000	1.613291
590.000000	1.617945
589.000000	1.621913
588.000000	1.625653
587.000000	1.630022
586.000000	1.634641
585.000000	1.636827
584.000000	1.640164
583.000000	1.643422
582.000000	1.645960
581.000000	1.649151
580.000000	1.652525
579.000000	1.654209
578.000000	1.657301
577.000000	1.659661
576.000000	1.662510
575.000000	1.665318
574.000000	1.669343
573.000000	1.670893
572.000000	1.673849
571.000000	1.677727
570.000000	1.682009
569.000000	1.685088
568.000000	1.688443
567.000000	1.691257
566.000000	1.696343
565.000000	1.699259
564.000000	1.703426
563.000000	1.706531
562.000000	1.709348
561.000000	1.712463
560.000000	1.715490
559.000000	1.718081
558.000000	1.720517
557.000000	1.722140
556.000000	1.723723
555.000000	1.725569
554.000000	1.726817
553.000000	1.727826
552.000000	1.729420
551.000000	1.730697
550.000000	1.731583
549.000000	1.733927
548.000000	1.735779
547.000000	1.737824
546.000000	1.740799
545.000000	1.744085
544.000000	1.747919
543.000000	1.752253
542.000000	1.756956
541.000000	1.762283
540.000000	1.768544
539.000000	1.775827
538.000000	1.784132
537.000000	1.792766
536.000000	1.801757
535.000000	1.811042
534.000000	1.822104
533.000000	1.833283
532.000000	1.844470
531.000000	1.856259
530.000000	1.867971
529.000000	1.879405
528.000000	1.892412
527.000000	1.905101
526.000000	1.917613
525.000000	1.930771
524.000000	1.944514
523.000000	1.959118
522.000000	1.974177
521.000000	1.988593
520.000000	2.003712
519.000000	2.019204
518.000000	2.034709
517.000000	2.049311
516.000000	2.063727
515.000000	2.077244
514.000000	2.089410
513.000000	2.100942
512.000000	2.111417
511.000000	2.119925
510.000000	2.128512
509.000000	2.137278
508.000000	2.145561
507.000000	2.153376
506.000000	2.161678
505.000000	2.169809
504.000000	2.178431
503.000000	2.187409
502.000000	2.196907
501.000000	2.207228
500.000000	2.217809
499.000000	2.229558
498.000000	2.243955
497.000000	2.259253
496.000000	2.275120
495.000000	2.292879
494.000000	2.312397
493.000000	2.335079
492.000000	2.360922
491.000000	2.389389
490.000000	2.420158
489.000000	2.455116
488.000000	2.494521
487.000000	2.537410
486.000000	2.584887
485.000000	2.636416
484.000000	2.692326
483.000000	2.753365
482.000000	2.817226
481.000000	2.883144
480.000000	2.953023
479.000000	3.024606
478.000000	3.097183
477.000000	3.171442
476.000000	3.244332
475.000000	3.315334
474.000000	3.385087
473.000000	3.452301
472.000000	3.516585
471.000000	3.577294
470.000000	3.632593
469.000000	3.682103
468.000000	3.724814
467.000000	3.757977
466.000000	3.779630
465.000000	3.788048
464.000000	3.783948
463.000000	3.769146
462.000000	3.744811
461.000000	3.713482
460.000000	3.677624
459.000000	3.640279
458.000000	3.602815
457.000000	3.567718
456.000000	3.534567
455.000000	3.503602
454.000000	3.476651
453.000000	3.454097
452.000000	3.433765
451.000000	3.417171
450.000000	3.403813
449.000000	3.393063
448.000000	3.385459
447.000000	3.380639
446.000000	3.376441
445.000000	3.373263
444.000000	3.371340
443.000000	3.371219
442.000000	3.371357
441.000000	3.371839
440.000000	3.371372
439.000000	3.371429
438.000000	3.372494
437.000000	3.373218
436.000000	3.373388
435.000000	3.372970
434.000000	3.372341
433.000000	3.372527
432.000000	3.372361
431.000000	3.372149
430.000000	3.372125
429.000000	3.373874
428.000000	3.376540
427.000000	3.381627
426.000000	3.388308
425.000000	3.396422
424.000000	3.406487
423.000000	3.418658
422.000000	3.433709
421.000000	3.449212
420.000000	3.465752
419.000000	3.484431
418.000000	3.504231
417.000000	3.524597
416.000000	3.543240
415.000000	3.561858
414.000000	3.580912
413.000000	3.598204
412.000000	3.616000
411.000000	3.632349
410.000000	3.646456
409.000000	3.660000
408.000000	3.672448
407.000000	3.683243
406.000000	3.692416
405.000000	3.698241
404.000000	3.700803
403.000000	3.700909
402.000000	3.699178
401.000000	3.694570
400.000000	3.685248
399.000000	3.672996
398.000000	3.660095
397.000000	3.646778
396.000000	3.632381
395.000000	3.617029
394.000000	3.603319
393.000000	3.590669
392.000000	3.579050
391.000000	3.567515
390.000000	3.558065
389.000000	3.549359
388.000000	3.542150
387.000000	3.538771
386.000000	3.534866
385.000000	3.531652
384.000000	3.530754
383.000000	3.531383
382.000000	3.532928
381.000000	3.535303
380.000000	3.536495
379.000000	3.539696
378.000000	3.541402
377.000000	3.547418
376.000000	3.553958
375.000000	3.555086
374.000000	3.558119
373.000000	3.562841
372.000000	3.568906
371.000000	3.572923
370.000000	3.582121
369.000000	3.590539
368.000000	3.601614
367.000000	3.615275
366.000000	3.628046
365.000000	3.647097
364.000000	3.662967
363.000000	3.684152
362.000000	3.705951
361.000000	3.724976
360.000000	3.746259
359.000000	3.769275
358.000000	3.790006
357.000000	3.809258
356.000000	3.829292
355.000000	3.849543
354.000000	3.868417
353.000000	3.884609
352.000000	3.901622
351.000000	3.916283
350.000000	3.932941
349.000000	3.949398
348.000000	3.965849
347.000000	3.981829
346.000000	3.998608
345.000000	4.017439
344.000000	4.040613
343.000000	4.061392
342.000000	4.086518
341.000000	4.110802
340.000000	4.140835
339.000000	4.173019
338.000000	4.204574
337.000000	4.239457
336.000000	4.275757
335.000000	4.315532
334.000000	4.357965
333.000000	4.399321
332.000000	4.442855
331.000000	4.487235
330.000000	4.529742
329.000000	4.576015
328.000000	4.624468
327.000000	4.670166
326.000000	4.716088
325.000000	4.763807
324.000000	4.810569
323.000000	4.854534
322.000000	4.897569
321.000000	4.939157
320.000000	4.980338
319.000000	5.020099
318.000000	5.059284
317.000000	5.097387
316.000000	5.133749
315.000000	5.169517
314.000000	5.202985
313.000000	5.235732
312.000000	5.268566
311.000000	5.298276
310.000000	5.326797
309.000000	5.353666
308.000000	5.381322
307.000000	5.408084
306.000000	5.433674
305.000000	5.460912
304.000000	5.486294
303.000000	5.510240
302.000000	5.534370
301.000000	5.554950
300.000000	5.574690
299.000000	5.589822
298.000000	5.603418
297.000000	5.613512
296.000000	5.621581
295.000000	5.629900
294.000000	5.637625
293.000000	5.645496
292.000000	5.651243
291.000000	5.658336
290.000000	5.665857
289.000000	5.672403
288.000000	5.681655
287.000000	5.690482
286.000000	5.700173
285.000000	5.711029
284.000000	5.723967
283.000000	5.739357
282.000000	5.756074
281.000000	5.773797
280.000000	5.791860
279.000000	5.811236
278.000000	5.830528
277.000000	5.847657
276.000000	5.860861
275.000000	5.870019
274.000000	5.874079
273.000000	5.875075
272.000000	5.870140
271.000000	5.861307
270.000000	5.850587
269.000000	5.839370
268.000000	5.827328
267.000000	5.815381
266.000000	5.804237
265.000000	5.794185
264.000000	5.785266
263.000000	5.779971
262.000000	5.776919
261.000000	5.774815
260.000000	5.776016
259.000000	5.779469
258.000000	5.785590
257.000000	5.794531
256.000000	5.808095
255.000000	5.824286
254.000000	5.843969
253.000000	5.868141
252.000000	5.896615
251.000000	5.930470
250.000000	5.968952
249.000000	6.012251
248.000000	6.060764
247.000000	6.114038
246.000000	6.170191
245.000000	6.227538
244.000000	6.286951
243.000000	6.349491
242.000000	6.414379
241.000000	6.478384
240.000000	6.539824
239.000000	6.599428
238.000000	6.657059
237.000000	6.710635
236.000000	6.757414
235.000000	6.797041
234.000000	6.828540
233.000000	6.852036
232.000000	6.867917
231.000000	6.870984
230.000000	6.864105
229.000000	6.848138
228.000000	6.820475
227.000000	6.782571
226.000000	6.732967
225.000000	6.672236
224.000000	6.602839
223.000000	6.523574
222.000000	6.433426
221.000000	6.333575
220.000000	6.226894
219.000000	6.114232
218.000000	5.996160
217.000000	5.874646
216.000000	5.751189
215.000000	5.628841
214.000000	5.508227
213.000000	5.387978
212.000000	5.270593
211.000000	5.157695
210.000000	5.049963
209.000000	4.944928
208.000000	4.845051
207.000000	4.748228
206.000000	4.656096
205.000000	4.571925
204.000000	4.490851
203.000000	4.417878
202.000000	4.347542
201.000000	4.282729
200.000000	4.227233
