WAVELENGTH	ABS
nm	Abs
881.8043	0.05444
883.1182	0.05414
884.4324	0.05387
885.7467	0.05389
887.0613	0.05372
888.376	0.05313
889.691	0.05242
891.0062	0.05203
892.3215	0.05196
893.6371	0.05189
894.9529	0.05197
896.2689	0.05222
897.585	0.05244
898.9014	0.0525
900.218	0.05225
901.5349	0.05183
902.8518	0.05157
904.1691	0.05162
905.4865	0.05158
906.8041	0.05153
908.1219	0.05191
909.4399	0.05229
910.7582	0.05246
912.0766	0.05282
913.3953	0.05302
914.7141	0.05288
916.0332	0.05315
917.3525	0.05385
918.6719	0.05459
919.9916	0.05524
921.3115	0.05542
922.6315	0.05511
923.9518	0.05478
925.2723	0.05462
926.593	0.05461
927.9139	0.05473
929.235	0.05502
930.5563	0.05522
931.8779	0.05508
933.1996	0.0549
934.5215	0.05516
935.8436	0.05575
937.166	0.05642
938.4885	0.05704
939.8113	0.05747
941.1342	0.05794
942.4574	0.05868
943.7808	0.05963
945.1043	0.06072
946.4281	0.06188
947.7521	0.06314
949.0762	0.06462
950.4006	0.06608
951.7252	0.06719
953.05	0.06838
954.3751	0.07032
955.7003	0.07267
957.0256	0.07482
958.3513	0.07702
959.6771	0.07935
961.0031	0.08155
962.3293	0.08362
963.6558	0.0857
964.9824	0.08781
966.3093	0.08994
967.6364	0.09211
968.9636	0.09436
970.2911	0.09702
971.6187	0.10017
972.9466	0.10376
974.2747	0.10752
975.603	0.11102
976.9315	0.11432
978.2601	0.11678
979.5891	0.1182
980.9182	0.11937
982.2475	0.11998
983.577	0.11966
984.9067	0.11889
986.2366	0.1177
987.5668	0.11594
988.8971	0.11372
990.2276	0.11148
991.5583	0.10936
992.8893	0.10729
994.2205	0.10578
995.5518	0.10462
996.8834	0.10288
998.2151	0.10078
999.5471	0.099
1000.879	0.097
1002.212	0.09486
1003.544	0.09328
1004.877	0.09163
1006.21	0.08954
1007.543	0.08734
1008.877	0.08538
1010.21	0.08362
1011.544	0.08207
1012.878	0.08073
1014.212	0.07936
1015.547	0.0784
1016.881	0.07764
1018.216	0.07658
1019.551	0.07573
1020.887	0.07514
1022.222	0.0747
1023.558	0.07472
1024.894	0.07482
1026.23	0.07447
1027.566	0.07411
1028.902	0.07398
1030.239	0.07351
1031.576	0.07267
1032.913	0.07159
1034.25	0.07038
1035.588	0.06939
1036.926	0.06851
1038.264	0.06755
1039.602	0.06639
1040.94	0.06503
1042.279	0.06396
1043.617	0.06311
1044.956	0.06212
1046.295	0.0613
1047.635	0.06055
1048.974	0.05975
1050.314	0.05875
1051.654	0.05728
1052.994	0.05609
1054.335	0.05573
1055.675	0.0554
1057.016	0.05476
1058.357	0.05427
1059.698	0.05371
1061.04	0.05281
1062.381	0.05191
1063.723	0.05119
1065.065	0.05071
1066.407	0.05053
1067.75	0.05035
1069.092	0.04953
1070.435	0.04849
1071.778	0.04834
1073.121	0.04877
1074.465	0.04867
1075.809	0.04806
1077.152	0.0474
1078.496	0.04667
1079.841	0.04584
1081.185	0.04561
1082.53	0.04584
1083.875	0.04509
1085.22	0.04421
1086.565	0.04423
1087.911	0.04385
1089.256	0.0432
1090.602	0.04314
1091.948	0.04329
1093.295	0.04345
1094.641	0.04341
1095.988	0.04321
1097.335	0.04336
1098.682	0.04363
1100.029	0.0439
1101.377	0.04474
1102.725	0.04585
1104.073	0.04629
1105.421	0.04624
1106.769	0.04626
1108.118	0.0464
1109.467	0.04671
1110.816	0.04703
1112.165	0.04745
1113.514	0.04823
1114.864	0.04911
1116.214	0.05017
1117.564	0.05111
1118.914	0.05149
1120.264	0.05195
1121.615	0.05244
1122.966	0.05243
1124.317	0.05239
1125.668	0.05276
1127.02	0.05367
1128.371	0.05461
1129.723	0.05492
1131.075	0.05462
1132.427	0.05439
1133.78	0.05449
1135.133	0.05433
1136.485	0.05415
1137.839	0.05437
1139.192	0.05473
1140.545	0.05477
1141.899	0.05455
1143.253	0.05481
1144.607	0.05522
1145.961	0.05504
1147.316	0.05492
1148.671	0.05487
1150.026	0.0543
1151.381	0.0537
1152.736	0.05308
1154.092	0.0525
1155.447	0.05258
1156.803	0.05275
1158.159	0.05243
1159.516	0.05175
1160.872	0.05152
1162.229	0.05178
1163.586	0.05137
1164.943	0.05027
1166.301	0.04936
1167.658	0.04888
1169.016	0.04848
1170.374	0.04802
1171.732	0.04757
1173.091	0.04713
1174.449	0.04655
1175.808	0.04597
1177.167	0.04577
1178.526	0.04577
1179.886	0.04572
1181.246	0.04563
1182.605	0.04561
1183.966	0.04584
1185.326	0.04571
1186.686	0.0449
1188.047	0.04459
1189.408	0.04465
1190.769	0.04389
1192.13	0.04302
1193.492	0.04274
1194.853	0.04218
1196.215	0.04184
1197.577	0.04176
1198.94	0.0408
1200.302	0.03979
1201.665	0.03946
1203.028	0.0394
1204.391	0.03939
1205.754	0.0393
1207.118	0.03926
1208.482	0.03932
1209.846	0.03893
1211.21	0.03826
1212.574	0.03782
1213.939	0.03749
1215.304	0.03718
1216.669	0.03684
1218.034	0.03678
1219.399	0.03705
1220.765	0.03717
1222.13	0.03698
1223.496	0.03639
1224.863	0.03613
1226.229	0.03639
1227.596	0.0364
1228.963	0.03627
1230.33	0.03586
1231.697	0.03556
1233.064	0.03545
1234.432	0.0349
1235.8	0.03471
1237.168	0.03479
1238.536	0.03434
1239.905	0.03394
1241.273	0.03419
1242.642	0.03479
1244.011	0.03548
1245.38	0.03589
1246.75	0.03578
1248.12	0.03572
1249.49	0.03593
1250.86	0.03638
1252.23	0.03663
1253.6	0.03654
1254.971	0.0367
1256.342	0.03658
1257.713	0.03636
1259.085	0.03683
1260.456	0.03705
1261.828	0.03659
1263.2	0.03627
1264.572	0.03666
1265.944	0.0372
1267.317	0.03715
1268.69	0.03684
1270.063	0.0369
1271.436	0.03738
1272.809	0.03721
1274.183	0.03656
1275.557	0.03659
1276.931	0.03682
1278.305	0.03661
1279.679	0.03619
1281.054	0.03691
1282.429	0.03753
1283.804	0.0367
1285.179	0.0364
1286.554	0.03668
1287.93	0.03686
1289.306	0.03731
1290.682	0.03738
1292.058	0.03675
1293.435	0.03637
1294.811	0.03648
1296.188	0.03628
1297.565	0.03653
1298.943	0.03732
1300.32	0.03762
1301.698	0.03802
1303.076	0.0386
1304.454	0.03851
1305.832	0.03792
1307.211	0.03762
1308.589	0.03821
1309.968	0.03869
1311.347	0.03789
1312.727	0.03692
1314.106	0.03687
1315.486	0.03782
1316.866	0.03883
1318.246	0.0386
1319.626	0.03774
1321.007	0.03765
1322.388	0.03841
1323.769	0.0389
1325.15	0.03878
1326.531	0.03873
1327.913	0.03887
1329.295	0.03877
1330.677	0.03845
1332.059	0.03833
1333.441	0.03854
1334.824	0.03911
1336.207	0.03889
1337.59	0.038
1338.973	0.03842
1340.356	0.03925
1341.74	0.03994
1343.124	0.04144
1344.508	0.04207
1345.892	0.04115
1347.277	0.04092
1348.661	0.04122
1350.046	0.04095
1351.431	0.04065
1352.817	0.04063
1354.202	0.04116
1355.588	0.04243
1356.974	0.04353
1358.36	0.04405
1359.746	0.04464
1361.132	0.04452
1362.519	0.04371
1363.906	0.04398
1365.293	0.04416
1366.681	0.04239
1368.068	0.04095
1369.456	0.043
1370.844	0.04775
1372.232	0.05031
1373.62	0.04942
1375.009	0.04987
1376.398	0.05154
1377.787	0.04893
1379.176	0.0422
1380.565	0.04074
1381.955	0.03998
1383.344	0.03237
1384.734	0.03025
1386.125	0.0318
1387.515	0.03151
1388.906	0.02892
1390.297	0.02943
1391.687	0.02716
1393.079	0.01253
1394.47	0.01614
1395.862	0.04071
1397.254	0.04612
1398.646	0.04246
1400.038	0.0425
1401.43	0.02972
1402.823	0.02146
1404.216	0.02902
1405.609	0.03336
1407.002	0.02797
1408.396	0.02341
1409.789	0.02441
1411.183	0.03156
1412.577	0.03953
1413.972	0.03739
1415.366	0.02766
1416.761	0.03303
1418.156	0.04768
1419.551	0.04918
1420.946	0.05526
1422.342	0.06317
1423.738	0.04477
1425.133	0.02391
1426.53	0.01937
1427.926	0.04052
1429.323	0.09688
1430.719	0.09862
1432.116	0.04056
1433.513	0.02488
1434.911	0.04737
1436.308	0.05427
1437.706	0.02588
1439.104	0.01887
1440.502	0.05611
1441.901	0.07031
1443.299	0.03923
1444.698	0.03044
1446.097	0.05061
1447.496	0.03884
1448.896	0.02906
1450.295	0.04815
1451.695	0.04721
1453.095	0.05235
1454.495	0.09328
1455.896	0.09226
1457.297	0.04304
1458.698	0.01714
1460.099	0.02016
1461.5	0.03127
1462.901	0.03513
1464.303	0.03215
1465.705	0.02149
1467.107	0.02154
1468.509	0.04163
1469.912	0.04414
1471.314	0.03055
1472.717	0.03428
1474.12	0.06116
1475.524	0.04281
1476.927	-0.00621
1478.331	-0.00158
1479.735	0.04165
1481.139	0.06766
1482.543	0.05182
1483.948	0.02883
1485.353	0.03703
1486.758	0.04217
1488.163	0.01958
1489.568	-0.00639
1490.974	-0.03455
1492.38	-0.02205
1493.786	0.03528
1495.192	0.05636
1496.598	0.05711
1498.005	0.03991
1499.412	-0.02089
1500.819	-0.06018
1502.226	-0.04665
1503.633	-0.02824
1505.041	-0.02924
1506.449	-0.01327
1507.857	0.02157
1509.265	0.04136
1510.673	0.05743
1512.082	0.05562
1513.491	0.04491
1514.9	0.04814
1516.309	0.06576
1517.719	0.07589
1519.128	0.05224
1520.538	0.01566
1521.948	-0.00144
1523.359	0.01965
1524.769	0.05962
1526.18	0.06535
1527.591	0.0105
1529.002	-0.03121
1530.413	0.00166
1531.825	0.0323
1533.236	0.04022
1534.648	0.05408
1536.06	0.03921
1537.473	0.00997
1538.885	0.02224
1540.298	0.02852
1541.711	0.0315
1543.124	0.02825
1544.538	-0.01248
1545.951	-0.03177
1547.365	-0.00904
1548.779	0.02318
1550.193	0.03626
1551.608	0.03745
1553.022	0.06601
1554.437	0.07125
1555.852	0.02022
1557.267	-0.00302
1558.682	0.0266
1560.098	0.02917
1561.514	-0.02887
1562.93	-0.04398
1564.346	0.00452
1565.763	0.02293
1567.179	0.04035
1568.596	0.03791
1570.013	-0.00159
1571.431	-0.0019
1572.848	0.04843
1574.266	0.05831
1575.683	0.01259
1577.102	0.002
1578.52	0.03634
1579.938	0.05753
