PE UV       SUBTECH     SPECTRUM    ASCII       PEDS        4.00        
   -1
normSG65i-P112.asc
12/06/15
09:26:06.00
12/06/15
09:37:53.00
Analyst

360.000000
1
Lambda 950
950N7030103
PerkinElmer UV WinLab 6.0.3.0730 / 1.61.00 Lambda 900

0
0
3350/servo 860.8/2
0
0
UV/VIS
1
1
1
RBeamAtt,SBeamAtt,uv/vis/nir detector
0
0
0
0
Program
Program
3350/servo 860.8/2
3350/0.2 860.8/0.2
3350/0.2 860.8/0.2
0
1
 
 
 
0
 
860.8
319.2
860.8
Front
100
 
S:100 R:100
 
0
0
0
 
0
 
 
 
0
 
 
0
0
0
0
0
 
 
 
 
0
0


#HDR
-1
-1
#GR
nm
A
1.0
0.0
1350.000000
-1.000000
991
8
4.348980
0.343672
#DATA
1350.000000	0.343672
1349.000000	0.345217
1348.000000	0.345808
1347.000000	0.346739
1346.000000	0.347417
1345.000000	0.348866
1344.000000	0.349917
1343.000000	0.350905
1342.000000	0.352204
1341.000000	0.353649
1340.000000	0.354405
1339.000000	0.355465
1338.000000	0.356759
1337.000000	0.357821
1336.000000	0.359080
1335.000000	0.360372
1334.000000	0.362003
1333.000000	0.363026
1332.000000	0.364936
1331.000000	0.365857
1330.000000	0.367345
1329.000000	0.368344
1328.000000	0.370231
1327.000000	0.371214
1326.000000	0.372816
1325.000000	0.374686
1324.000000	0.375869
1323.000000	0.377857
1322.000000	0.379035
1321.000000	0.380726
1320.000000	0.382649
1319.000000	0.383967
1318.000000	0.385786
1317.000000	0.387246
1316.000000	0.389755
1315.000000	0.390874
1314.000000	0.393415
1313.000000	0.395799
1312.000000	0.397140
1311.000000	0.399274
1310.000000	0.401445
1309.000000	0.402947
1308.000000	0.405145
1307.000000	0.407305
1306.000000	0.409132
1305.000000	0.411505
1304.000000	0.413928
1303.000000	0.416069
1302.000000	0.418477
1301.000000	0.420446
1300.000000	0.422330
1299.000000	0.424580
1298.000000	0.427056
1297.000000	0.429327
1296.000000	0.431417
1295.000000	0.433430
1294.000000	0.435684
1293.000000	0.437851
1292.000000	0.439948
1291.000000	0.441654
1290.000000	0.443407
1289.000000	0.445307
1288.000000	0.446855
1287.000000	0.448392
1286.000000	0.449660
1285.000000	0.451242
1284.000000	0.452608
1283.000000	0.453518
1282.000000	0.454830
1281.000000	0.455953
1280.000000	0.456682
1279.000000	0.457428
1278.000000	0.457964
1277.000000	0.458197
1276.000000	0.458299
1275.000000	0.458137
1274.000000	0.458028
1273.000000	0.458119
1272.000000	0.457986
1271.000000	0.457750
1270.000000	0.457667
1269.000000	0.457327
1268.000000	0.456717
1267.000000	0.455927
1266.000000	0.455208
1265.000000	0.454491
1264.000000	0.453737
1263.000000	0.453186
1262.000000	0.452459
1261.000000	0.451595
1260.000000	0.450745
1259.000000	0.450172
1258.000000	0.449714
1257.000000	0.449065
1256.000000	0.448586
1255.000000	0.448076
1254.000000	0.447381
1253.000000	0.446426
1252.000000	0.445856
1251.000000	0.445520
1250.000000	0.445320
1249.000000	0.445302
1248.000000	0.445624
1247.000000	0.445939
1246.000000	0.445919
1245.000000	0.446272
1244.000000	0.446839
1243.000000	0.447311
1242.000000	0.447903
1241.000000	0.448424
1240.000000	0.449343
1239.000000	0.450810
1238.000000	0.452397
1237.000000	0.453659
1236.000000	0.455309
1235.000000	0.457052
1234.000000	0.458623
1233.000000	0.461126
1232.000000	0.463642
1231.000000	0.465740
1230.000000	0.468252
1229.000000	0.470655
1228.000000	0.473226
1227.000000	0.476171
1226.000000	0.479488
1225.000000	0.482884
1224.000000	0.486341
1223.000000	0.490111
1222.000000	0.493937
1221.000000	0.497836
1220.000000	0.501890
1219.000000	0.505910
1218.000000	0.510107
1217.000000	0.514532
1216.000000	0.519204
1215.000000	0.524128
1214.000000	0.529199
1213.000000	0.534361
1212.000000	0.539724
1211.000000	0.545215
1210.000000	0.550840
1209.000000	0.556600
1208.000000	0.562334
1207.000000	0.568867
1206.000000	0.575030
1205.000000	0.581065
1204.000000	0.587880
1203.000000	0.594709
1202.000000	0.601561
1201.000000	0.608145
1200.000000	0.615416
1199.000000	0.623178
1198.000000	0.631345
1197.000000	0.639627
1196.000000	0.647682
1195.000000	0.655973
1194.000000	0.663962
1193.000000	0.671749
1192.000000	0.679466
1191.000000	0.687485
1190.000000	0.695716
1189.000000	0.704973
1188.000000	0.713451
1187.000000	0.722139
1186.000000	0.731332
1185.000000	0.740355
1184.000000	0.749399
1183.000000	0.758742
1182.000000	0.767916
1181.000000	0.777466
1180.000000	0.787679
1179.000000	0.798848
1178.000000	0.809320
1177.000000	0.820548
1176.000000	0.832362
1175.000000	0.843855
1174.000000	0.855565
1173.000000	0.867428
1172.000000	0.878828
1171.000000	0.890109
1170.000000	0.900963
1169.000000	0.911344
1168.000000	0.921911
1167.000000	0.931074
1166.000000	0.940493
1165.000000	0.949872
1164.000000	0.958961
1163.000000	0.967563
1162.000000	0.976309
1161.000000	0.985839
1160.000000	0.995090
1159.000000	1.005666
1158.000000	1.016733
1157.000000	1.029004
1156.000000	1.041627
1155.000000	1.055464
1154.000000	1.069906
1153.000000	1.086635
1152.000000	1.102411
1151.000000	1.119865
1150.000000	1.136264
1149.000000	1.151963
1148.000000	1.166509
1147.000000	1.179733
1146.000000	1.192528
1145.000000	1.203644
1144.000000	1.213375
1143.000000	1.220330
1142.000000	1.225684
1141.000000	1.229214
1140.000000	1.231513
1139.000000	1.233663
1138.000000	1.234581
1137.000000	1.234952
1136.000000	1.232786
1135.000000	1.231357
1134.000000	1.231208
1133.000000	1.229511
1132.000000	1.226643
1131.000000	1.224152
1130.000000	1.220853
1129.000000	1.217416
1128.000000	1.215325
1127.000000	1.212605
1126.000000	1.209504
1125.000000	1.205761
1124.000000	1.201384
1123.000000	1.195884
1122.000000	1.190196
1121.000000	1.184051
1120.000000	1.176592
1119.000000	1.167625
1118.000000	1.157012
1117.000000	1.143501
1116.000000	1.130681
1115.000000	1.116298
1114.000000	1.101093
1113.000000	1.084983
1112.000000	1.069022
1111.000000	1.052482
1110.000000	1.036491
1109.000000	1.021242
1108.000000	1.007963
1107.000000	0.994285
1106.000000	0.981828
1105.000000	0.969935
1104.000000	0.959443
1103.000000	0.950481
1102.000000	0.942566
1101.000000	0.936282
1100.000000	0.930727
1099.000000	0.926585
1098.000000	0.923700
1097.000000	0.921862
1096.000000	0.921047
1095.000000	0.921799
1094.000000	0.922820
1093.000000	0.925153
1092.000000	0.928425
1091.000000	0.932812
1090.000000	0.937821
1089.000000	0.944150
1088.000000	0.951083
1087.000000	0.959488
1086.000000	0.968279
1085.000000	0.977491
1084.000000	0.987609
1083.000000	0.998810
1082.000000	1.010119
1081.000000	1.021841
1080.000000	1.034111
1079.000000	1.047232
1078.000000	1.060934
1077.000000	1.075331
1076.000000	1.090685
1075.000000	1.107027
1074.000000	1.122626
1073.000000	1.139236
1072.000000	1.156458
1071.000000	1.173855
1070.000000	1.191472
1069.000000	1.208718
1068.000000	1.226562
1067.000000	1.244648
1066.000000	1.263748
1065.000000	1.281824
1064.000000	1.300622
1063.000000	1.320084
1062.000000	1.339529
1061.000000	1.360108
1060.000000	1.382048
1059.000000	1.403892
1058.000000	1.426297
1057.000000	1.449806
1056.000000	1.475425
1055.000000	1.500670
1054.000000	1.527326
1053.000000	1.555005
1052.000000	1.584705
1051.000000	1.614296
1050.000000	1.645046
1049.000000	1.677695
1048.000000	1.712787
1047.000000	1.747605
1046.000000	1.783343
1045.000000	1.822255
1044.000000	1.863839
1043.000000	1.904554
1042.000000	1.948184
1041.000000	1.994992
1040.000000	2.039495
1039.000000	2.085793
1038.000000	2.133352
1037.000000	2.176409
1036.000000	2.218513
1035.000000	2.259906
1034.000000	2.294542
1033.000000	2.325453
1032.000000	2.354184
1031.000000	2.382457
1030.000000	2.407709
1029.000000	2.428125
1028.000000	2.445970
1027.000000	2.465095
1026.000000	2.485519
1025.000000	2.506808
1024.000000	2.530633
1023.000000	2.554328
1022.000000	2.581100
1021.000000	2.614528
1020.000000	2.650643
1019.000000	2.684733
1018.000000	2.721952
1017.000000	2.765828
1016.000000	2.815848
1015.000000	2.868994
1014.000000	2.926500
1013.000000	2.984060
1012.000000	3.048674
1011.000000	3.124148
1010.000000	3.202044
1009.000000	3.275109
1008.000000	3.347406
1007.000000	3.424669
1006.000000	3.510211
1005.000000	3.588673
1004.000000	3.653570
1003.000000	3.717530
1002.000000	3.779886
1001.000000	3.824351
1000.000000	3.862831
999.000000	3.905101
998.000000	3.936099
997.000000	3.949787
996.000000	3.956404
995.000000	3.971036
994.000000	3.999960
993.000000	4.024196
992.000000	4.037724
991.000000	4.052071
990.000000	4.085352
989.000000	4.132729
988.000000	4.184731
987.000000	4.237038
986.000000	4.272892
985.000000	4.312011
984.000000	4.345018
983.000000	4.348980
982.000000	4.342548
981.000000	4.328302
980.000000	4.277666
979.000000	4.186348
978.000000	4.073508
977.000000	3.948430
976.000000	3.823158
975.000000	3.703873
974.000000	3.581146
973.000000	3.452678
972.000000	3.327336
971.000000	3.212363
970.000000	3.109580
969.000000	3.021975
968.000000	2.942812
967.000000	2.870931
966.000000	2.807089
965.000000	2.746797
964.000000	2.687638
963.000000	2.627617
962.000000	2.566247
961.000000	2.504351
960.000000	2.437942
959.000000	2.366049
958.000000	2.291775
957.000000	2.216962
956.000000	2.142946
955.000000	2.070606
954.000000	2.001950
953.000000	1.938005
952.000000	1.877808
951.000000	1.822152
950.000000	1.771265
949.000000	1.725845
948.000000	1.683462
947.000000	1.647308
946.000000	1.616210
945.000000	1.589336
944.000000	1.565965
943.000000	1.546556
942.000000	1.529613
941.000000	1.515734
940.000000	1.503570
939.000000	1.493215
938.000000	1.484807
937.000000	1.478820
936.000000	1.474545
935.000000	1.472266
934.000000	1.471344
933.000000	1.471696
932.000000	1.474386
931.000000	1.479379
930.000000	1.485709
929.000000	1.494288
928.000000	1.505193
927.000000	1.517610
926.000000	1.530094
925.000000	1.541993
924.000000	1.552762
923.000000	1.561065
922.000000	1.567352
921.000000	1.570161
920.000000	1.567819
919.000000	1.564077
918.000000	1.556375
917.000000	1.547925
916.000000	1.538814
915.000000	1.527716
914.000000	1.518313
913.000000	1.509777
912.000000	1.503240
911.000000	1.497058
910.000000	1.492919
909.000000	1.491402
908.000000	1.492668
907.000000	1.495189
906.000000	1.499263
905.000000	1.505533
904.000000	1.514368
903.000000	1.524253
902.000000	1.534637
901.000000	1.546551
900.000000	1.560670
899.000000	1.575803
898.000000	1.591954
897.000000	1.609224
896.000000	1.628199
895.000000	1.649327
894.000000	1.671735
893.000000	1.694858
892.000000	1.720503
891.000000	1.747700
890.000000	1.777067
889.000000	1.807123
888.000000	1.837195
887.000000	1.865346
886.000000	1.892829
885.000000	1.918596
884.000000	1.940602
883.000000	1.957245
882.000000	1.966768
881.000000	1.969305
880.000000	1.961754
879.000000	1.949681
878.000000	1.930375
877.000000	1.905089
876.000000	1.875566
875.000000	1.841862
874.000000	1.805483
873.000000	1.764968
872.000000	1.726709
871.000000	1.688735
870.000000	1.652852
869.000000	1.619094
868.000000	1.588104
867.000000	1.556066
866.000000	1.529152
865.000000	1.504213
864.000000	1.483115
863.000000	1.463153
862.000000	1.444780
861.000000	1.431151
860.000000	1.418396
859.000000	1.408298
858.000000	1.400477
857.000000	1.394401
856.000000	1.388306
855.000000	1.383549
854.000000	1.379825
853.000000	1.375897
852.000000	1.372457
851.000000	1.371433
850.000000	1.369614
849.000000	1.368688
848.000000	1.367026
847.000000	1.367423
846.000000	1.367438
845.000000	1.368051
844.000000	1.369582
843.000000	1.369813
842.000000	1.372348
841.000000	1.372056
840.000000	1.370734
839.000000	1.367483
838.000000	1.362856
837.000000	1.355317
836.000000	1.345537
835.000000	1.333929
834.000000	1.320768
833.000000	1.307284
832.000000	1.292836
831.000000	1.278377
830.000000	1.264330
829.000000	1.249711
828.000000	1.236054
827.000000	1.222587
826.000000	1.210566
825.000000	1.198690
824.000000	1.187460
823.000000	1.176630
822.000000	1.166063
821.000000	1.155617
820.000000	1.145796
819.000000	1.136872
818.000000	1.128068
817.000000	1.119587
816.000000	1.112077
815.000000	1.105256
814.000000	1.097825
813.000000	1.091249
812.000000	1.085390
811.000000	1.079668
810.000000	1.073813
809.000000	1.068645
808.000000	1.063614
807.000000	1.058575
806.000000	1.053954
805.000000	1.049336
804.000000	1.044745
803.000000	1.040107
802.000000	1.035531
801.000000	1.031549
800.000000	1.027460
799.000000	1.023504
798.000000	1.019831
797.000000	1.016804
796.000000	1.013461
795.000000	1.009873
794.000000	1.007653
793.000000	1.004702
792.000000	1.002678
791.000000	1.000823
790.000000	0.998936
789.000000	0.997573
788.000000	0.996435
787.000000	0.995537
786.000000	0.995528
785.000000	0.995500
784.000000	0.995885
783.000000	0.996372
782.000000	0.997314
781.000000	0.998622
780.000000	1.000000
779.000000	1.001469
778.000000	1.003318
777.000000	1.005163
776.000000	1.007007
775.000000	1.008804
774.000000	1.010401
773.000000	1.011796
772.000000	1.013128
771.000000	1.014139
770.000000	1.015268
769.000000	1.016256
768.000000	1.017288
767.000000	1.017857
766.000000	1.018346
765.000000	1.018965
764.000000	1.019633
763.000000	1.020188
762.000000	1.020855
761.000000	1.021870
760.000000	1.022831
759.000000	1.024096
758.000000	1.025600
757.000000	1.027515
756.000000	1.029071
755.000000	1.030945
754.000000	1.033428
753.000000	1.035523
752.000000	1.037650
751.000000	1.039962
750.000000	1.042439
749.000000	1.045095
748.000000	1.047300
747.000000	1.049488
746.000000	1.051781
745.000000	1.053935
744.000000	1.055737
743.000000	1.057233
742.000000	1.058686
741.000000	1.059900
740.000000	1.060736
739.000000	1.061572
738.000000	1.062112
737.000000	1.062333
736.000000	1.062564
735.000000	1.062599
734.000000	1.062401
733.000000	1.062260
732.000000	1.062259
731.000000	1.061986
730.000000	1.061804
729.000000	1.062007
728.000000	1.062141
727.000000	1.062039
726.000000	1.061704
725.000000	1.061636
724.000000	1.061706
723.000000	1.061721
722.000000	1.061805
721.000000	1.062195
720.000000	1.063026
719.000000	1.064138
718.000000	1.065333
717.000000	1.066915
716.000000	1.069205
715.000000	1.071587
714.000000	1.074719
713.000000	1.078103
712.000000	1.081580
711.000000	1.085665
710.000000	1.090286
709.000000	1.095121
708.000000	1.100199
707.000000	1.105584
706.000000	1.111152
705.000000	1.117390
704.000000	1.123724
703.000000	1.130288
702.000000	1.136804
701.000000	1.143882
700.000000	1.151111
699.000000	1.158282
698.000000	1.165397
697.000000	1.172578
696.000000	1.179070
695.000000	1.185319
694.000000	1.191006
693.000000	1.196491
692.000000	1.201822
691.000000	1.207156
690.000000	1.213024
689.000000	1.219580
688.000000	1.226595
687.000000	1.234091
686.000000	1.242841
685.000000	1.252874
684.000000	1.263746
683.000000	1.275934
682.000000	1.288203
681.000000	1.301670
680.000000	1.315880
679.000000	1.330331
678.000000	1.345656
677.000000	1.360822
676.000000	1.376144
675.000000	1.391742
674.000000	1.407345
673.000000	1.423067
672.000000	1.437799
671.000000	1.451883
670.000000	1.464395
669.000000	1.475203
668.000000	1.484439
667.000000	1.490662
666.000000	1.494680
665.000000	1.496103
664.000000	1.495525
663.000000	1.493965
662.000000	1.492073
661.000000	1.490211
660.000000	1.488724
659.000000	1.487736
658.000000	1.487742
657.000000	1.488739
656.000000	1.489824
655.000000	1.491060
654.000000	1.492294
653.000000	1.493228
652.000000	1.493357
651.000000	1.491592
650.000000	1.488374
649.000000	1.483436
648.000000	1.476663
647.000000	1.468349
646.000000	1.458197
645.000000	1.446825
644.000000	1.434782
643.000000	1.421911
642.000000	1.409059
641.000000	1.395876
640.000000	1.382891
639.000000	1.369790
638.000000	1.357896
637.000000	1.346567
636.000000	1.336069
635.000000	1.326871
634.000000	1.318709
633.000000	1.311855
632.000000	1.307116
631.000000	1.303805
630.000000	1.301310
629.000000	1.300604
628.000000	1.301075
627.000000	1.302667
626.000000	1.305651
625.000000	1.309547
624.000000	1.314890
623.000000	1.320914
622.000000	1.328306
621.000000	1.337013
620.000000	1.346593
619.000000	1.356799
618.000000	1.368076
617.000000	1.381281
616.000000	1.394330
615.000000	1.408753
614.000000	1.424394
613.000000	1.440869
612.000000	1.458326
611.000000	1.476815
610.000000	1.496527
609.000000	1.517487
608.000000	1.540035
607.000000	1.564079
606.000000	1.588624
605.000000	1.614971
604.000000	1.642949
603.000000	1.672130
602.000000	1.703345
601.000000	1.735719
600.000000	1.769354
599.000000	1.804848
598.000000	1.840560
597.000000	1.877596
596.000000	1.914686
595.000000	1.951513
594.000000	1.988386
593.000000	2.024160
592.000000	2.059620
591.000000	2.092747
590.000000	2.124087
589.000000	2.154036
588.000000	2.181036
587.000000	2.206836
586.000000	2.228742
585.000000	2.248384
584.000000	2.265594
583.000000	2.280138
582.000000	2.293462
581.000000	2.305512
580.000000	2.317846
579.000000	2.330669
578.000000	2.344042
577.000000	2.358220
576.000000	2.372458
575.000000	2.386046
574.000000	2.397636
573.000000	2.406042
572.000000	2.408824
571.000000	2.404386
570.000000	2.391054
569.000000	2.367958
568.000000	2.335380
567.000000	2.294065
566.000000	2.245619
565.000000	2.191692
564.000000	2.135385
563.000000	2.078403
562.000000	2.023542
561.000000	1.970576
560.000000	1.922111
559.000000	1.877784
558.000000	1.837413
557.000000	1.800432
556.000000	1.767039
555.000000	1.736310
554.000000	1.708124
553.000000	1.682186
552.000000	1.658466
551.000000	1.636758
550.000000	1.617252
549.000000	1.600197
548.000000	1.585319
547.000000	1.572377
546.000000	1.561760
545.000000	1.553331
544.000000	1.546377
543.000000	1.540802
542.000000	1.536533
541.000000	1.533337
540.000000	1.531305
539.000000	1.530044
538.000000	1.529649
537.000000	1.530210
536.000000	1.531765
535.000000	1.534510
534.000000	1.538137
533.000000	1.542891
532.000000	1.548773
531.000000	1.555803
530.000000	1.563889
529.000000	1.572939
528.000000	1.583150
527.000000	1.594113
526.000000	1.605923
525.000000	1.618429
524.000000	1.630885
523.000000	1.643371
522.000000	1.655783
521.000000	1.667832
520.000000	1.679567
519.000000	1.690616
518.000000	1.700995
517.000000	1.710998
516.000000	1.720184
515.000000	1.728990
514.000000	1.736609
513.000000	1.742727
512.000000	1.747213
511.000000	1.749649
510.000000	1.749697
509.000000	1.746942
508.000000	1.741414
507.000000	1.733395
506.000000	1.723048
505.000000	1.711069
504.000000	1.697944
503.000000	1.683937
502.000000	1.669690
501.000000	1.655945
500.000000	1.642541
499.000000	1.629882
498.000000	1.618127
497.000000	1.607229
496.000000	1.597910
495.000000	1.589784
494.000000	1.582634
493.000000	1.576568
492.000000	1.571610
491.000000	1.567716
490.000000	1.564564
489.000000	1.562120
488.000000	1.560580
487.000000	1.559917
486.000000	1.560263
485.000000	1.561930
484.000000	1.565009
483.000000	1.569755
482.000000	1.576301
481.000000	1.584865
480.000000	1.595477
479.000000	1.608065
478.000000	1.622834
477.000000	1.639810
476.000000	1.658899
475.000000	1.679896
474.000000	1.702562
473.000000	1.726198
472.000000	1.750367
471.000000	1.774509
470.000000	1.797732
469.000000	1.819699
468.000000	1.839260
467.000000	1.856258
466.000000	1.870306
465.000000	1.881043
464.000000	1.888600
463.000000	1.892877
462.000000	1.894783
461.000000	1.894860
460.000000	1.893023
459.000000	1.889674
458.000000	1.885260
457.000000	1.879825
456.000000	1.873225
455.000000	1.864990
454.000000	1.855149
453.000000	1.843652
452.000000	1.830653
451.000000	1.816442
450.000000	1.801516
449.000000	1.786605
448.000000	1.772410
447.000000	1.759187
446.000000	1.747380
445.000000	1.736736
444.000000	1.727725
443.000000	1.720510
442.000000	1.714368
441.000000	1.709960
440.000000	1.706650
439.000000	1.704829
438.000000	1.704111
437.000000	1.704484
436.000000	1.706003
435.000000	1.708350
434.000000	1.711858
433.000000	1.715644
432.000000	1.720437
431.000000	1.725787
430.000000	1.732311
429.000000	1.739465
428.000000	1.747199
427.000000	1.756509
426.000000	1.766550
425.000000	1.777952
424.000000	1.790911
423.000000	1.805047
422.000000	1.820596
421.000000	1.837462
420.000000	1.856515
419.000000	1.876889
418.000000	1.898200
417.000000	1.921500
416.000000	1.945170
415.000000	1.969046
414.000000	1.992335
413.000000	2.014498
412.000000	2.034620
411.000000	2.051662
410.000000	2.067122
409.000000	2.079772
408.000000	2.090458
407.000000	2.099292
406.000000	2.106284
405.000000	2.112077
404.000000	2.116422
403.000000	2.120046
402.000000	2.122286
401.000000	2.122376
400.000000	2.121775
399.000000	2.119612
398.000000	2.116666
397.000000	2.113730
396.000000	2.110911
395.000000	2.109416
394.000000	2.109471
393.000000	2.111299
392.000000	2.115318
391.000000	2.121753
390.000000	2.130398
389.000000	2.141963
388.000000	2.154547
387.000000	2.168657
386.000000	2.183946
385.000000	2.201094
384.000000	2.218758
383.000000	2.237677
382.000000	2.257491
381.000000	2.278213
380.000000	2.300487
379.000000	2.323124
378.000000	2.349696
377.000000	2.370261
376.000000	2.391007
375.000000	2.409155
374.000000	2.423895
373.000000	2.437703
372.000000	2.448188
371.000000	2.459944
370.000000	2.468058
369.000000	2.477713
368.000000	2.489241
367.000000	2.504523
366.000000	2.522236
365.000000	2.542083
364.000000	2.568731
363.000000	2.598221
362.000000	2.633016
361.000000	2.671568
360.000000	2.714176
