PE UV       SUBTECH     SPECTRUM    ASCII       PEDS        4.00        
   -1
SG76-000-0024.asc
10/10/06
17:16:37.00
10/10/06
17:16:37.00
Analyst

360.000000
1
Lambda 950
950N7030103
PerkinElmer UV WinLab 5.2.0.0646 / 1.61.00 Lambda 900

0
0
3350/servo 860.8/2
0
0
UV/VIS
1
1
1
RBeamAtt,SBeamAtt,uv/vis/nir detector
0
0
0
0
Program
Program
3350/servo 860.8/2
3350/0.2 860.8/0.2
3350/0.2 860.8/0.2
0
1
 
 
 
0
 
860.8
319.2
860.8
Front
100
 
S:100 R:100
 
0
0
0
 
0
 
 
 
0
 
 
0
0
0
0
0
 
 
 
 
0
0
#HDR
-1
-1
#GR
nm
A
1.0
0.0
1350.000000
-1.000000
991
8
2.477554
0.916857
#DATA
1350.000000	0.916857
1349.000000	0.923620
1348.000000	0.927666
1347.000000	0.931299
1346.000000	0.933758
1345.000000	0.936423
1344.000000	0.940077
1343.000000	0.944595
1342.000000	0.949667
1341.000000	0.955012
1340.000000	0.960388
1339.000000	0.965349
1338.000000	0.969822
1337.000000	0.974490
1336.000000	0.979808
1335.000000	0.985037
1334.000000	0.990205
1333.000000	0.995242
1332.000000	1.000040
1331.000000	1.004932
1330.000000	1.010275
1329.000000	1.016072
1328.000000	1.021343
1327.000000	1.026286
1326.000000	1.031006
1325.000000	1.035523
1324.000000	1.040799
1323.000000	1.045290
1322.000000	1.049784
1321.000000	1.054554
1320.000000	1.058571
1319.000000	1.062823
1318.000000	1.068178
1317.000000	1.072687
1316.000000	1.076875
1315.000000	1.081748
1314.000000	1.086112
1313.000000	1.089225
1312.000000	1.092685
1311.000000	1.097341
1310.000000	1.102285
1309.000000	1.106618
1308.000000	1.110302
1307.000000	1.114321
1306.000000	1.118602
1305.000000	1.122924
1304.000000	1.127290
1303.000000	1.131691
1302.000000	1.137072
1301.000000	1.141998
1300.000000	1.145750
1299.000000	1.149796
1298.000000	1.154468
1297.000000	1.160226
1296.000000	1.166345
1295.000000	1.171049
1294.000000	1.174355
1293.000000	1.178889
1292.000000	1.184494
1291.000000	1.188001
1290.000000	1.191855
1289.000000	1.195663
1288.000000	1.198007
1287.000000	1.200058
1286.000000	1.203077
1285.000000	1.205070
1284.000000	1.204953
1283.000000	1.205377
1282.000000	1.206498
1281.000000	1.207121
1280.000000	1.207160
1279.000000	1.206325
1278.000000	1.204252
1277.000000	1.202710
1276.000000	1.202292
1275.000000	1.201749
1274.000000	1.201064
1273.000000	1.200172
1272.000000	1.199496
1271.000000	1.198286
1270.000000	1.195909
1269.000000	1.194573
1268.000000	1.194289
1267.000000	1.193828
1266.000000	1.192457
1265.000000	1.190250
1264.000000	1.188746
1263.000000	1.187555
1262.000000	1.186436
1261.000000	1.184739
1260.000000	1.181739
1259.000000	1.177890
1258.000000	1.175030
1257.000000	1.172671
1256.000000	1.170030
1255.000000	1.166847
1254.000000	1.163610
1253.000000	1.160454
1252.000000	1.157129
1251.000000	1.153615
1250.000000	1.150423
1249.000000	1.147356
1248.000000	1.144482
1247.000000	1.142038
1246.000000	1.139849
1245.000000	1.138023
1244.000000	1.136879
1243.000000	1.136513
1242.000000	1.135958
1241.000000	1.135443
1240.000000	1.135900
1239.000000	1.137024
1238.000000	1.137633
1237.000000	1.138116
1236.000000	1.139975
1235.000000	1.142754
1234.000000	1.144982
1233.000000	1.146976
1232.000000	1.149383
1231.000000	1.152349
1230.000000	1.155636
1229.000000	1.159334
1228.000000	1.163561
1227.000000	1.168060
1226.000000	1.172784
1225.000000	1.177729
1224.000000	1.182921
1223.000000	1.188514
1222.000000	1.194218
1221.000000	1.200165
1220.000000	1.206303
1219.000000	1.212555
1218.000000	1.218996
1217.000000	1.225495
1216.000000	1.232341
1215.000000	1.239363
1214.000000	1.246314
1213.000000	1.253596
1212.000000	1.260796
1211.000000	1.268142
1210.000000	1.277355
1209.000000	1.286048
1208.000000	1.293310
1207.000000	1.300495
1206.000000	1.309183
1205.000000	1.318152
1204.000000	1.325753
1203.000000	1.335211
1202.000000	1.344306
1201.000000	1.351339
1200.000000	1.358423
1199.000000	1.367731
1198.000000	1.377085
1197.000000	1.384419
1196.000000	1.391397
1195.000000	1.398829
1194.000000	1.406748
1193.000000	1.414444
1192.000000	1.421903
1191.000000	1.429918
1190.000000	1.437496
1189.000000	1.444134
1188.000000	1.449854
1187.000000	1.455320
1186.000000	1.460739
1185.000000	1.466110
1184.000000	1.471619
1183.000000	1.476919
1182.000000	1.481887
1181.000000	1.487045
1180.000000	1.491829
1179.000000	1.497456
1178.000000	1.502906
1177.000000	1.508206
1176.000000	1.513291
1175.000000	1.515986
1174.000000	1.518891
1173.000000	1.524281
1172.000000	1.531413
1171.000000	1.538483
1170.000000	1.544727
1169.000000	1.551876
1168.000000	1.558601
1167.000000	1.565517
1166.000000	1.572849
1165.000000	1.580192
1164.000000	1.587435
1163.000000	1.591219
1162.000000	1.595403
1161.000000	1.602916
1160.000000	1.610617
1159.000000	1.619121
1158.000000	1.624235
1157.000000	1.628562
1156.000000	1.633316
1155.000000	1.639034
1154.000000	1.644091
1153.000000	1.650127
1152.000000	1.656046
1151.000000	1.658920
1150.000000	1.663347
1149.000000	1.667233
1148.000000	1.671464
1147.000000	1.675923
1146.000000	1.681545
1145.000000	1.685275
1144.000000	1.689214
1143.000000	1.691112
1142.000000	1.691775
1141.000000	1.695795
1140.000000	1.698061
1139.000000	1.699449
1138.000000	1.702198
1137.000000	1.703495
1136.000000	1.700026
1135.000000	1.696812
1134.000000	1.700180
1133.000000	1.702721
1132.000000	1.693965
1131.000000	1.685287
1130.000000	1.673803
1129.000000	1.666944
1128.000000	1.662642
1127.000000	1.656705
1126.000000	1.649838
1125.000000	1.635536
1124.000000	1.622708
1123.000000	1.612194
1122.000000	1.602059
1121.000000	1.591046
1120.000000	1.580391
1119.000000	1.563032
1118.000000	1.547833
1117.000000	1.534223
1116.000000	1.520350
1115.000000	1.505383
1114.000000	1.490539
1113.000000	1.474016
1112.000000	1.458078
1111.000000	1.440913
1110.000000	1.425089
1109.000000	1.409300
1108.000000	1.393382
1107.000000	1.378549
1106.000000	1.364860
1105.000000	1.348555
1104.000000	1.337143
1103.000000	1.325755
1102.000000	1.314089
1101.000000	1.303608
1100.000000	1.293563
1099.000000	1.284221
1098.000000	1.275761
1097.000000	1.268438
1096.000000	1.261098
1095.000000	1.255165
1094.000000	1.249636
1093.000000	1.244505
1092.000000	1.239859
1091.000000	1.235635
1090.000000	1.232230
1089.000000	1.229302
1088.000000	1.226647
1087.000000	1.224221
1086.000000	1.222435
1085.000000	1.220894
1084.000000	1.219633
1083.000000	1.218628
1082.000000	1.220345
1081.000000	1.220390
1080.000000	1.220081
1079.000000	1.220385
1078.000000	1.220644
1077.000000	1.221232
1076.000000	1.222185
1075.000000	1.223470
1074.000000	1.224979
1073.000000	1.227151
1072.000000	1.231293
1071.000000	1.233403
1070.000000	1.234905
1069.000000	1.236259
1068.000000	1.237991
1067.000000	1.239394
1066.000000	1.240395
1065.000000	1.241908
1064.000000	1.244837
1063.000000	1.246155
1062.000000	1.246850
1061.000000	1.247640
1060.000000	1.249237
1059.000000	1.252397
1058.000000	1.253961
1057.000000	1.255192
1056.000000	1.256963
1055.000000	1.260907
1054.000000	1.263299
1053.000000	1.264582
1052.000000	1.266633
1051.000000	1.269586
1050.000000	1.273675
1049.000000	1.276330
1048.000000	1.278925
1047.000000	1.283462
1046.000000	1.286331
1045.000000	1.289367
1044.000000	1.294221
1043.000000	1.297636
1042.000000	1.299816
1041.000000	1.303153
1040.000000	1.308042
1039.000000	1.311232
1038.000000	1.313306
1037.000000	1.316520
1036.000000	1.317409
1035.000000	1.317130
1034.000000	1.317305
1033.000000	1.314645
1032.000000	1.310594
1031.000000	1.306597
1030.000000	1.301179
1029.000000	1.294787
1028.000000	1.286967
1027.000000	1.278240
1026.000000	1.270352
1025.000000	1.261661
1024.000000	1.252320
1023.000000	1.244337
1022.000000	1.236515
1021.000000	1.229192
1020.000000	1.221750
1019.000000	1.214121
1018.000000	1.208247
1017.000000	1.203262
1016.000000	1.198856
1015.000000	1.194618
1014.000000	1.191083
1013.000000	1.187157
1012.000000	1.183622
1011.000000	1.181555
1010.000000	1.180004
1009.000000	1.179113
1008.000000	1.177398
1007.000000	1.176306
1006.000000	1.176774
1005.000000	1.177128
1004.000000	1.176657
1003.000000	1.175765
1002.000000	1.176006
1001.000000	1.177847
1000.000000	1.179485
999.000000	1.179854
998.000000	1.180438
997.000000	1.181821
996.000000	1.182796
995.000000	1.183961
994.000000	1.186610
993.000000	1.189183
992.000000	1.189923
991.000000	1.189789
990.000000	1.190713
989.000000	1.193275
988.000000	1.195065
987.000000	1.194797
986.000000	1.193613
985.000000	1.192641
984.000000	1.192639
983.000000	1.191799
982.000000	1.188967
981.000000	1.185045
980.000000	1.181460
979.000000	1.178802
978.000000	1.175348
977.000000	1.170245
976.000000	1.164309
975.000000	1.158541
974.000000	1.153879
973.000000	1.149631
972.000000	1.144851
971.000000	1.140646
970.000000	1.137000
969.000000	1.132687
968.000000	1.128303
967.000000	1.124851
966.000000	1.121814
965.000000	1.118209
964.000000	1.114874
963.000000	1.111936
962.000000	1.108178
961.000000	1.104081
960.000000	1.100064
959.000000	1.096125
958.000000	1.092291
957.000000	1.088723
956.000000	1.085427
955.000000	1.081917
954.000000	1.078550
953.000000	1.075319
952.000000	1.072013
951.000000	1.068762
950.000000	1.064489
949.000000	1.060530
948.000000	1.057588
947.000000	1.054845
946.000000	1.052223
945.000000	1.049448
944.000000	1.046730
943.000000	1.044292
942.000000	1.041733
941.000000	1.039335
940.000000	1.037808
939.000000	1.036201
938.000000	1.033926
937.000000	1.031525
936.000000	1.030028
935.000000	1.028682
934.000000	1.026886
933.000000	1.025999
932.000000	1.025030
931.000000	1.023253
930.000000	1.021587
929.000000	1.020811
928.000000	1.020108
927.000000	1.019903
926.000000	1.019204
925.000000	1.017794
924.000000	1.017056
923.000000	1.017143
922.000000	1.016937
921.000000	1.015526
920.000000	1.014531
919.000000	1.014292
918.000000	1.014011
917.000000	1.012778
916.000000	1.012089
915.000000	1.012089
914.000000	1.012385
913.000000	1.012084
912.000000	1.011837
911.000000	1.012458
910.000000	1.012224
909.000000	1.011936
908.000000	1.012269
907.000000	1.012078
906.000000	1.012294
905.000000	1.013253
904.000000	1.014482
903.000000	1.014520
902.000000	1.014622
901.000000	1.015235
900.000000	1.016304
899.000000	1.017192
898.000000	1.017444
897.000000	1.018806
896.000000	1.020019
895.000000	1.021215
894.000000	1.021882
893.000000	1.022226
892.000000	1.023864
891.000000	1.025578
890.000000	1.027352
889.000000	1.028116
888.000000	1.028559
887.000000	1.029933
886.000000	1.031490
885.000000	1.033116
884.000000	1.034571
883.000000	1.035132
882.000000	1.035551
881.000000	1.036508
880.000000	1.037208
879.000000	1.037795
878.000000	1.038739
877.000000	1.039118
876.000000	1.039210
875.000000	1.038524
874.000000	1.038678
873.000000	1.038118
872.000000	1.037942
871.000000	1.037822
870.000000	1.037161
869.000000	1.036197
868.000000	1.035836
867.000000	1.035323
866.000000	1.034741
865.000000	1.033765
864.000000	1.032397
863.000000	1.032328
862.000000	1.032641
861.000000	1.031613
860.000000	1.029569
859.000000	1.037169
858.000000	1.036870
857.000000	1.036397
856.000000	1.036304
855.000000	1.035647
854.000000	1.036386
853.000000	1.036437
852.000000	1.036999
851.000000	1.037926
850.000000	1.038612
849.000000	1.039568
848.000000	1.040916
847.000000	1.042420
846.000000	1.044237
845.000000	1.046050
844.000000	1.048451
843.000000	1.050374
842.000000	1.053098
841.000000	1.055719
840.000000	1.058240
839.000000	1.060734
838.000000	1.062973
837.000000	1.064591
836.000000	1.066831
835.000000	1.068878
834.000000	1.071087
833.000000	1.072394
832.000000	1.074569
831.000000	1.076462
830.000000	1.078809
829.000000	1.081257
828.000000	1.083822
827.000000	1.085809
826.000000	1.088845
825.000000	1.091325
824.000000	1.093976
823.000000	1.096422
822.000000	1.099402
821.000000	1.102112
820.000000	1.105175
819.000000	1.107473
818.000000	1.109758
817.000000	1.112003
816.000000	1.114655
815.000000	1.116468
814.000000	1.118479
813.000000	1.120618
812.000000	1.122161
811.000000	1.123835
810.000000	1.125067
809.000000	1.126192
808.000000	1.126877
807.000000	1.127193
806.000000	1.127744
805.000000	1.128062
804.000000	1.128305
803.000000	1.127918
802.000000	1.127644
801.000000	1.126961
800.000000	1.126609
799.000000	1.125825
798.000000	1.124854
797.000000	1.124015
796.000000	1.123278
795.000000	1.122328
794.000000	1.121782
793.000000	1.121054
792.000000	1.120993
791.000000	1.120684
790.000000	1.120571
789.000000	1.120589
788.000000	1.121205
787.000000	1.121762
786.000000	1.122755
785.000000	1.124170
784.000000	1.125997
783.000000	1.128156
782.000000	1.130914
781.000000	1.133458
780.000000	1.136549
779.000000	1.140076
778.000000	1.143800
777.000000	1.147909
776.000000	1.152699
775.000000	1.157104
774.000000	1.161604
773.000000	1.166779
772.000000	1.172542
771.000000	1.178344
770.000000	1.184358
769.000000	1.190486
768.000000	1.197242
767.000000	1.204177
766.000000	1.211352
765.000000	1.218819
764.000000	1.226609
763.000000	1.234365
762.000000	1.242197
761.000000	1.250780
760.000000	1.259659
759.000000	1.268645
758.000000	1.277818
757.000000	1.286842
756.000000	1.296558
755.000000	1.306570
754.000000	1.316460
753.000000	1.326471
752.000000	1.336682
751.000000	1.347022
750.000000	1.357256
749.000000	1.367505
748.000000	1.377787
747.000000	1.387880
746.000000	1.398099
745.000000	1.407391
744.000000	1.416522
743.000000	1.425126
742.000000	1.432797
741.000000	1.439990
740.000000	1.446153
739.000000	1.450937
738.000000	1.455495
737.000000	1.459451
736.000000	1.461911
735.000000	1.463318
734.000000	1.463544
733.000000	1.462793
732.000000	1.461472
731.000000	1.459415
730.000000	1.456512
729.000000	1.452689
728.000000	1.447774
727.000000	1.441853
726.000000	1.435434
725.000000	1.428503
724.000000	1.421006
723.000000	1.413448
722.000000	1.405486
721.000000	1.397123
720.000000	1.389187
719.000000	1.381814
718.000000	1.374543
717.000000	1.367986
716.000000	1.361849
715.000000	1.356017
714.000000	1.350996
713.000000	1.346702
712.000000	1.342950
711.000000	1.339919
710.000000	1.337329
709.000000	1.335691
708.000000	1.334820
707.000000	1.334779
706.000000	1.335085
705.000000	1.336170
704.000000	1.337768
703.000000	1.339442
702.000000	1.341998
701.000000	1.345549
700.000000	1.349204
699.000000	1.353320
698.000000	1.357439
697.000000	1.362134
696.000000	1.367035
695.000000	1.372693
694.000000	1.377992
693.000000	1.384069
692.000000	1.390453
691.000000	1.396918
690.000000	1.403549
689.000000	1.410918
688.000000	1.418163
687.000000	1.425323
686.000000	1.433048
685.000000	1.440984
684.000000	1.449211
683.000000	1.457321
682.000000	1.465701
681.000000	1.473941
680.000000	1.482702
679.000000	1.490947
678.000000	1.499905
677.000000	1.509244
676.000000	1.518934
675.000000	1.528231
674.000000	1.537905
673.000000	1.547441
672.000000	1.557138
671.000000	1.567491
670.000000	1.578526
669.000000	1.588754
668.000000	1.599693
667.000000	1.610642
666.000000	1.621776
665.000000	1.633343
664.000000	1.644629
663.000000	1.654623
662.000000	1.664581
661.000000	1.673334
660.000000	1.681401
659.000000	1.688563
658.000000	1.695125
657.000000	1.699590
656.000000	1.703998
655.000000	1.705613
654.000000	1.705623
653.000000	1.704870
652.000000	1.702681
651.000000	1.697765
650.000000	1.691346
649.000000	1.681756
648.000000	1.670945
647.000000	1.658332
646.000000	1.645540
645.000000	1.631131
644.000000	1.616594
643.000000	1.601106
642.000000	1.586118
641.000000	1.571407
640.000000	1.556939
639.000000	1.542407
638.000000	1.528841
637.000000	1.514973
636.000000	1.502697
635.000000	1.490902
634.000000	1.480290
633.000000	1.469739
632.000000	1.460704
631.000000	1.452191
630.000000	1.445160
629.000000	1.438901
628.000000	1.433359
627.000000	1.427822
626.000000	1.424192
625.000000	1.420873
624.000000	1.417963
623.000000	1.415868
622.000000	1.414771
621.000000	1.413657
620.000000	1.413486
619.000000	1.413222
618.000000	1.413274
617.000000	1.413878
616.000000	1.414920
615.000000	1.415486
614.000000	1.417471
613.000000	1.418429
612.000000	1.419644
611.000000	1.420993
610.000000	1.423116
609.000000	1.424442
608.000000	1.426830
607.000000	1.429146
606.000000	1.432095
605.000000	1.435086
604.000000	1.438640
603.000000	1.441536
602.000000	1.444986
601.000000	1.448076
600.000000	1.451486
599.000000	1.454836
598.000000	1.458267
597.000000	1.460776
596.000000	1.463179
595.000000	1.464713
594.000000	1.465605
593.000000	1.465797
592.000000	1.465922
591.000000	1.464359
590.000000	1.463174
589.000000	1.460897
588.000000	1.458506
587.000000	1.456436
586.000000	1.454590
585.000000	1.452360
584.000000	1.450909
583.000000	1.449477
582.000000	1.449043
581.000000	1.448717
580.000000	1.449042
579.000000	1.449377
578.000000	1.450589
577.000000	1.451734
576.000000	1.453502
575.000000	1.455694
574.000000	1.458060
573.000000	1.459479
572.000000	1.462240
571.000000	1.464208
570.000000	1.466260
569.000000	1.467615
568.000000	1.468950
567.000000	1.469385
566.000000	1.470082
565.000000	1.470147
564.000000	1.470394
563.000000	1.470759
562.000000	1.471195
561.000000	1.470834
560.000000	1.470470
559.000000	1.469154
558.000000	1.468940
557.000000	1.467484
556.000000	1.465744
555.000000	1.463899
554.000000	1.461666
553.000000	1.458811
552.000000	1.456464
551.000000	1.454139
550.000000	1.449994
549.000000	1.446645
548.000000	1.444193
547.000000	1.441387
546.000000	1.439646
545.000000	1.437620
544.000000	1.436110
543.000000	1.435152
542.000000	1.434695
541.000000	1.434368
540.000000	1.434875
539.000000	1.435441
538.000000	1.436828
537.000000	1.438848
536.000000	1.442035
535.000000	1.445485
534.000000	1.449976
533.000000	1.454555
532.000000	1.459818
531.000000	1.466024
530.000000	1.472736
529.000000	1.479889
528.000000	1.488337
527.000000	1.496770
526.000000	1.506374
525.000000	1.516421
524.000000	1.527092
523.000000	1.537848
522.000000	1.549422
521.000000	1.560573
520.000000	1.572132
519.000000	1.584706
518.000000	1.597499
517.000000	1.609964
516.000000	1.622597
515.000000	1.633910
514.000000	1.645246
513.000000	1.655818
512.000000	1.665212
511.000000	1.672931
510.000000	1.679332
509.000000	1.683657
508.000000	1.686245
507.000000	1.687271
506.000000	1.685597
505.000000	1.681941
504.000000	1.677779
503.000000	1.671847
502.000000	1.665527
501.000000	1.660025
500.000000	1.653337
499.000000	1.644874
498.000000	1.637977
497.000000	1.631407
496.000000	1.625392
495.000000	1.620179
494.000000	1.615437
493.000000	1.611537
492.000000	1.608664
491.000000	1.605847
490.000000	1.604673
489.000000	1.604441
488.000000	1.604071
487.000000	1.604525
486.000000	1.605483
485.000000	1.606562
484.000000	1.608559
483.000000	1.611062
482.000000	1.613939
481.000000	1.617635
480.000000	1.622111
479.000000	1.626675
478.000000	1.631914
477.000000	1.637902
476.000000	1.644003
475.000000	1.650953
474.000000	1.657983
473.000000	1.665116
472.000000	1.673181
471.000000	1.681724
470.000000	1.689920
469.000000	1.698530
468.000000	1.707938
467.000000	1.717119
466.000000	1.726125
465.000000	1.735248
464.000000	1.743112
463.000000	1.751215
462.000000	1.758564
461.000000	1.764649
460.000000	1.770522
459.000000	1.775367
458.000000	1.778866
457.000000	1.782001
456.000000	1.784073
455.000000	1.784849
454.000000	1.784578
453.000000	1.783901
452.000000	1.781702
451.000000	1.780110
450.000000	1.777785
449.000000	1.775154
448.000000	1.772821
447.000000	1.771658
446.000000	1.770261
445.000000	1.769143
444.000000	1.767332
443.000000	1.765979
442.000000	1.765166
441.000000	1.765669
440.000000	1.766029
439.000000	1.767268
438.000000	1.768376
437.000000	1.769856
436.000000	1.772735
435.000000	1.776898
434.000000	1.780828
433.000000	1.785890
432.000000	1.790475
431.000000	1.795275
430.000000	1.800325
429.000000	1.806823
428.000000	1.812508
427.000000	1.819725
426.000000	1.827515
425.000000	1.835278
424.000000	1.843280
423.000000	1.851432
422.000000	1.858950
421.000000	1.868487
420.000000	1.876183
419.000000	1.883900
418.000000	1.892146
417.000000	1.900832
416.000000	1.908492
415.000000	1.915811
414.000000	1.921092
413.000000	1.925533
412.000000	1.928621
411.000000	1.931454
410.000000	1.931466
409.000000	1.933152
408.000000	1.934168
407.000000	1.935600
406.000000	1.939134
405.000000	1.943452
404.000000	1.948067
403.000000	1.954976
402.000000	1.962106
401.000000	1.971972
400.000000	1.982768
399.000000	1.997157
398.000000	2.009870
397.000000	2.026969
396.000000	2.043097
395.000000	2.060672
394.000000	2.080493
393.000000	2.101686
392.000000	2.122064
391.000000	2.144856
390.000000	2.165697
389.000000	2.190485
388.000000	2.214146
387.000000	2.239239
386.000000	2.260632
385.000000	2.282470
384.000000	2.299766
383.000000	2.317325
382.000000	2.337124
381.000000	2.356279
380.000000	2.370399
379.000000	2.386523
378.000000	2.397738
377.000000	2.403487
376.000000	2.396338
375.000000	2.397773
374.000000	2.396642
373.000000	2.392835
372.000000	2.389765
371.000000	2.385266
370.000000	2.382947
369.000000	2.384665
368.000000	2.388837
367.000000	2.408935
366.000000	2.400023
365.000000	2.415485
364.000000	2.422771
363.000000	2.440995
362.000000	2.450982
361.000000	2.463967
360.000000	2.477554
