WAVENUMBER	INTENSITY	A1	A2	B
1/cm	Counts/s	SC+M Total Fit	SC lorentzian	M BWF
				
	5 pts SG smooth of INTENSITY"Counts/s"			
-229.22621	-49.49376	4.11212	0.0037	4.10842
-227.68269	-49.08543	4.11233	0.00371	4.10863
-226.13958	-49.1566	4.11255	0.00371	4.10883
-224.59686	-49.88245	4.11276	0.00372	4.10904
-223.05454	-50.52175	4.11298	0.00373	4.10925
-221.51263	-50.32602	4.11319	0.00373	4.10946
-219.97111	-49.20029	4.11341	0.00374	4.10967
-218.43	-48.96605	4.11362	0.00375	4.10987
-216.88928	-50.23487	4.11384	0.00375	4.11008
-215.34896	-51.95705	4.11405	0.00376	4.11029
-213.80905	-52.89323	4.11427	0.00377	4.1105
-212.26953	-54.21979	4.11448	0.00377	4.11071
-210.73041	-55.96555	4.1147	0.00378	4.11092
-209.19169	-56.42467	4.11492	0.00378	4.11113
-207.65337	-55.39518	4.11514	0.00379	4.11134
-206.11545	-54.602	4.11535	0.0038	4.11156
-204.57793	-55.50753	4.11557	0.0038	4.11177
-203.0408	-57.35074	4.11579	0.00381	4.11198
-201.50408	-59.47157	4.11601	0.00382	4.11219
-199.96775	-60.38752	4.11623	0.00382	4.1124
-198.43182	-60.71481	4.11645	0.00383	4.11262
-196.89629	-60.76584	4.11667	0.00384	4.11283
-195.36116	-61.3	4.11689	0.00384	4.11304
-193.82642	-61.57116	4.11711	0.00385	4.11326
-192.29208	-62.4987	4.11733	0.00386	4.11347
-190.75814	-64.03117	4.11755	0.00386	4.11369
-189.2246	-65.1175	4.11777	0.00387	4.1139
-187.69146	-63.8263	4.11799	0.00388	4.11412
-186.15871	-61.31715	4.11822	0.00388	4.11433
-184.62636	-60.91292	4.11844	0.00389	4.11455
-183.09441	-64.04591	4.11866	0.0039	4.11476
-181.56285	-66.90493	4.11888	0.0039	4.11498
-180.03169	-66.17156	4.11911	0.00391	4.1152
-178.50093	-63.3328	4.11933	0.00392	4.11541
-176.97057	-62.55765	4.11956	0.00392	4.11563
-175.4406	-63.5067	4.11978	0.00393	4.11585
-173.91102	-63.8278	4.12001	0.00394	4.11607
-172.38185	-62.83522	4.12023	0.00395	4.11629
-170.85307	-63.16716	4.12046	0.00395	4.1165
-169.32468	-65.48857	4.12068	0.00396	4.11672
-167.7967	-67.98585	4.12091	0.00397	4.11694
-166.2691	-68.05845	4.12114	0.00397	4.11716
-164.74191	-66.49385	4.12136	0.00398	4.11738
-163.21511	-65.05393	4.12159	0.00399	4.1176
-161.6887	-64.3571	4.12182	0.00399	4.11782
-160.16269	-63.23049	4.12205	0.004	4.11805
-158.63708	-62.50268	4.12227	0.00401	4.11827
-157.11186	-63.04787	4.1225	0.00401	4.11849
-155.58703	-64.79367	4.12273	0.00402	4.11871
-154.0626	-66.72927	4.12296	0.00403	4.11893
-152.53857	-69.41126	4.12319	0.00404	4.11916
-151.01493	-72.37724	4.12342	0.00404	4.11938
-149.49168	-74.00073	4.12365	0.00405	4.1196
-147.96883	-72.6237	4.12388	0.00406	4.11983
-146.44638	-69.74885	4.12412	0.00406	4.12005
-144.92431	-67.88105	4.12435	0.00407	4.12028
-143.40264	-67.69458	4.12458	0.00408	4.1205
-141.88137	-66.33789	4.12481	0.00409	4.12073
-140.36049	-63.61695	4.12505	0.00409	4.12095
-138.84	-63.46645	4.12528	0.0041	4.12118
-137.31991	-67.8914	4.12551	0.00411	4.1214
-135.80021	-72.06133	4.12575	0.00411	4.12163
-134.28091	-72.56152	4.12598	0.00412	4.12186
-132.76199	-72.32907	4.12622	0.00413	4.12209
-131.24347	-75.22961	4.12645	0.00414	4.12231
-129.72535	-78.99897	4.12669	0.00414	4.12254
-128.20761	-80.68235	4.12692	0.00415	4.12277
-126.69027	-79.49285	4.12716	0.00416	4.123
-125.17333	-77.56755	4.12739	0.00417	4.12323
-123.65677	-75.47164	4.12763	0.00417	4.12346
-122.14061	-74.11434	4.12787	0.00418	4.12369
-120.62484	-73.8174	4.12811	0.00419	4.12392
-119.10946	-76.70687	4.12834	0.0042	4.12415
-117.59447	-82.44751	4.12858	0.0042	4.12438
-116.07988	-87.56283	4.12882	0.00421	4.12461
-114.56568	-87.27743	4.12906	0.00422	4.12484
-113.05187	-83.04426	4.1293	0.00423	4.12508
-111.53845	-80.38576	4.12954	0.00423	4.12531
-110.02542	-82.26581	4.12978	0.00424	4.12554
-108.51279	-84.86931	4.13002	0.00425	4.12577
-107.00055	-83.90665	4.13026	0.00426	4.12601
-105.48869	-79.3266	4.1305	0.00426	4.12624
-103.97723	-73.75484	4.13075	0.00427	4.12648
-102.46616	-70.43928	4.13099	0.00428	4.12671
-100.95548	-71.00796	4.13123	0.00429	4.12695
-99.4452	-74.77565	4.13148	0.00429	4.12718
-97.9353	-79.06769	4.13172	0.0043	4.12742
-96.42579	-82.90594	4.13196	0.00431	4.12765
-94.91667	-86.35144	4.13221	0.00432	4.12789
-93.40795	-88.97223	4.13245	0.00433	4.12813
-91.89961	-90.69066	4.1327	0.00433	4.12836
-90.39167	-93.89586	4.13294	0.00434	4.1286
-88.88411	-101.02992	4.13319	0.00435	4.12884
-87.37694	-109.56047	4.13343	0.00436	4.12908
-85.87017	-112.5508	4.13368	0.00436	4.12932
-84.36378	-108.80754	4.13393	0.00437	4.12956
-82.85779	-103.74431	4.13418	0.00438	4.1298
-81.35218	-101.54089	4.13442	0.00439	4.13004
-79.84696	-101.98563	4.13467	0.0044	4.13028
-78.34213	-106.23072	4.13492	0.0044	4.13052
-76.83769	-115.50962	4.13517	0.00441	4.13076
-75.33364	-125.91481	4.13542	0.00442	4.131
-73.82998	-133.28194	4.13567	0.00443	4.13124
-72.32671	-135.40757	4.13592	0.00444	4.13148
-70.82382	-134.71001	4.13617	0.00444	4.13173
-69.32133	-132.74871	4.13642	0.00445	4.13197
-67.81922	-134.23913	4.13667	0.00446	4.13221
-66.3175	-139.11595	4.13693	0.00447	4.13246
-64.81617	-145.52939	4.13718	0.00448	4.1327
-63.31523	-144.66113	4.13743	0.00448	4.13295
-61.81467	-133.44342	4.13768	0.00449	4.13319
-60.31451	-117.40989	4.13794	0.0045	4.13344
-58.81473	-110.31256	4.13819	0.00451	4.13368
-57.31534	-115.63778	4.13845	0.00452	4.13393
-55.81633	-123.21852	4.1387	0.00453	4.13418
-54.31772	-125.23487	4.13896	0.00453	4.13442
-52.81949	-126.27458	4.13921	0.00454	4.13467
-51.32165	-132.23015	4.13947	0.00455	4.13492
-49.82419	-132.10061	4.13973	0.00456	4.13517
-48.32713	-117.88344	4.13998	0.00457	4.13542
-46.83045	-101.65108	4.14024	0.00458	4.13566
-45.33415	-106.3837	4.1405	0.00458	4.13591
-43.83825	-128.80228	4.14076	0.00459	4.13616
-42.34273	-151.59476	4.14102	0.0046	4.13641
-40.84759	-162.30545	4.14127	0.00461	4.13666
-39.35284	-167.56934	4.14153	0.00462	4.13692
-37.85848	-167.34868	4.14179	0.00463	4.13717
-36.36451	-165.33739	4.14205	0.00464	4.13742
-34.87092	-159.81194	4.14232	0.00464	4.13767
-33.37771	-158.70149	4.14258	0.00465	4.13792
-31.8849	-168.94588	4.14284	0.00466	4.13818
-30.39247	-203.0587	4.1431	0.00467	4.13843
-28.90042	-255.80848	4.14336	0.00468	4.13869
-27.40876	-294.86334	4.14363	0.00469	4.13894
-25.91748	-276.84287	4.14389	0.0047	4.1392
-24.42659	-192.29845	4.14415	0.0047	4.13945
-22.93609	-94.60627	4.14442	0.00471	4.13971
-21.44597	-39.58553	4.14468	0.00472	4.13996
-19.95623	-34.431	4.14495	0.00473	4.14022
-18.46688	-42.37447	4.14522	0.00474	4.14048
-16.97792	-45.23509	4.14548	0.00475	4.14073
-15.48933	-43.96099	4.14575	0.00476	4.14099
-14.00114	-44.07102	4.14602	0.00477	4.14125
-12.51332	-44.07102	4.14628	0.00477	4.14151
-11.0259	-44.07102	4.14655	0.00478	4.14177
-9.53885	-44.07102	4.14682	0.00479	4.14203
-8.05219	-44.07102	4.14709	0.0048	4.14229
-6.56592	-44.07102	4.14736	0.00481	4.14255
-5.08002	-44.07102	4.14763	0.00482	4.14281
-3.59452	-44.07102	4.1479	0.00483	4.14307
-2.10939	-44.07102	4.14817	0.00484	4.14333
-0.62465	-44.07102	4.14844	0.00485	4.14359
0.85971	-44.07102	4.14871	0.00486	4.14386
2.34368	-44.07102	4.14898	0.00486	4.14412
3.82728	-44.07102	4.14926	0.00487	4.14438
5.31049	-44.07102	4.14953	0.00488	4.14465
6.79331	-44.07102	4.1498	0.00489	4.14491
8.27575	-44.07102	4.15008	0.0049	4.14518
9.75782	-44.07102	4.15035	0.00491	4.14544
11.23949	-44.07102	4.15063	0.00492	4.14571
12.72079	-44.07102	4.1509	0.00493	4.14597
14.2017	-44.07102	4.15118	0.00494	4.14624
15.68223	-44.07102	4.15146	0.00495	4.14651
17.16238	-44.07102	4.15173	0.00496	4.14678
18.64215	-44.07102	4.15201	0.00497	4.14704
20.12153	-44.07102	4.15229	0.00498	4.14731
21.60053	-44.07102	4.15257	0.00499	4.14758
23.07916	-44.07102	4.15285	0.005	4.14785
24.5574	-44.07102	4.15312	0.005	4.14812
26.03525	-44.07102	4.1534	0.00501	4.14839
27.51273	-44.07102	4.15368	0.00502	4.14866
28.98983	-44.07102	4.15397	0.00503	4.14893
30.46654	-44.07102	4.15425	0.00504	4.1492
31.94287	-44.07102	4.15453	0.00505	4.14948
33.41882	-44.07102	4.15481	0.00506	4.14975
34.8944	-44.07102	4.15509	0.00507	4.15002
36.36959	-44.07102	4.15538	0.00508	4.1503
37.8444	-44.07102	4.15566	0.00509	4.15057
39.31883	-44.07102	4.15595	0.0051	4.15084
40.79288	-44.07102	4.15623	0.00511	4.15112
42.26654	-44.07102	4.15651	0.00512	4.15139
43.73983	-44.07102	4.1568	0.00513	4.15167
45.21274	-44.07102	4.15709	0.00514	4.15195
46.68527	-44.07102	4.15737	0.00515	4.15222
48.15742	-44.07102	4.15766	0.00516	4.1525
49.62919	-44.07102	4.15795	0.00517	4.15278
51.10058	-44.07102	4.15824	0.00518	4.15306
52.57159	-44.07102	4.15853	0.00519	4.15334
54.04222	-44.07102	4.15881	0.0052	4.15362
55.51247	-44.07102	4.1591	0.00521	4.1539
56.98234	-44.07102	4.15939	0.00522	4.15418
58.45183	-44.07102	4.15969	0.00523	4.15446
59.92094	-44.07102	4.15998	0.00524	4.15474
61.38968	-44.07102	4.16027	0.00525	4.15502
62.85803	-44.07102	4.16056	0.00526	4.1553
64.32601	-44.07102	4.16085	0.00527	4.15558
65.79361	-44.07102	4.16115	0.00528	4.15587
67.26083	-44.07102	4.16144	0.00529	4.15615
68.72767	-44.07102	4.16174	0.0053	4.15643
70.19414	-44.07102	4.16203	0.00531	4.15672
71.66022	-44.07102	4.16233	0.00532	4.157
73.12593	-44.07102	4.16262	0.00533	4.15729
74.59126	-44.07102	4.16292	0.00534	4.15758
76.05621	-44.07102	4.16322	0.00535	4.15786
77.52078	-44.07102	4.16351	0.00536	4.15815
78.98498	-44.07102	4.16381	0.00537	4.15844
80.4488	-44.07102	4.16411	0.00538	4.15873
81.91224	-44.07102	4.16441	0.00539	4.15901
83.3753	-44.07102	4.16471	0.0054	4.1593
84.83799	-44.07102	4.16501	0.00542	4.15959
86.3003	-44.07102	4.16531	0.00543	4.15988
87.76223	-44.07102	4.16561	0.00544	4.16017
89.22379	-44.07102	4.16591	0.00545	4.16047
90.68497	-44.07102	4.16622	0.00546	4.16076
92.14577	-44.07102	4.16652	0.00547	4.16105
93.6062	-44.07102	4.16682	0.00548	4.16134
95.06625	-42.69447	4.16713	0.00549	4.16164
96.52592	-59.71617	4.16743	0.0055	4.16193
97.98522	-9.12199	4.16774	0.00551	4.16222
99.44414	35.51047	4.16804	0.00552	4.16252
100.90269	-47.58759	4.16835	0.00553	4.16281
102.36086	-494.6841	4.16865	0.00554	4.16311
103.81865	-1393.96088	4.16896	0.00556	4.16341
105.27607	-2760.87027	4.16927	0.00557	4.1637
106.73311	-3776.86324	4.16958	0.00558	4.164
108.18978	-3392.11965	4.16989	0.00559	4.1643
109.64607	-1810.61659	4.1702	0.0056	4.1646
111.10198	-463.66555	4.17051	0.00561	4.1649
112.55752	-129.94327	4.17082	0.00562	4.1652
114.01269	-200.63959	4.17113	0.00563	4.1655
115.46748	-178.52838	4.17144	0.00564	4.1658
116.9219	-81.14141	4.17175	0.00565	4.1661
118.37594	-77.5844	4.17207	0.00567	4.1664
119.82961	-85.53355	4.17238	0.00568	4.1667
121.2829	-91.33889	4.17269	0.00569	4.16701
122.73582	-87.6895	4.17301	0.0057	4.16731
124.18836	-84.70532	4.17332	0.00571	4.16761
125.64053	-84.44067	4.17364	0.00572	4.16792
127.09232	-85.73541	4.17396	0.00573	4.16822
128.54375	-83.61637	4.17427	0.00575	4.16853
129.99479	-79.05775	4.17459	0.00576	4.16883
131.44547	-76.4975	4.17491	0.00577	4.16914
132.89577	-77.98425	4.17523	0.00578	4.16945
134.34569	-81.40189	4.17555	0.00579	4.16976
135.79525	-83.81879	4.17587	0.0058	4.17006
137.24443	-83.84663	4.17619	0.00581	4.17037
138.69323	-81.60323	4.17651	0.00583	4.17068
140.14167	-79.26549	4.17683	0.00584	4.17099
141.58973	-77.77939	4.17715	0.00585	4.1713
143.03741	-77.46795	4.17748	0.00586	4.17161
144.48473	-77.68577	4.1778	0.00587	4.17193
145.93167	-77.76991	4.17812	0.00589	4.17224
147.37824	-77.63924	4.17845	0.0059	4.17255
148.82444	-77.37657	4.17877	0.00591	4.17286
150.27026	-77.63135	4.1791	0.00592	4.17318
151.71571	-77.82431	4.17943	0.00593	4.17349
153.16079	-77.40456	4.17975	0.00594	4.17381
154.6055	-75.40193	4.18008	0.00596	4.17412
156.04984	-73.32389	4.18041	0.00597	4.17444
157.4938	-72.59318	4.18074	0.00598	4.17476
158.93739	-72.3286	4.18107	0.00599	4.17508
160.38061	-70.15524	4.1814	0.00601	4.17539
161.82346	-67.17275	4.18173	0.00602	4.17571
163.26594	-65.20348	4.18206	0.00603	4.17603
164.70804	-63.37203	4.18239	0.00604	4.17635
166.14978	-60.19547	4.18273	0.00605	4.17667
167.59114	-58.51384	4.18306	0.00607	4.17699
169.03214	-60.27047	4.18339	0.00608	4.17731
170.47276	-62.82476	4.18373	0.00609	4.17764
171.91301	-62.58734	4.18406	0.0061	4.17796
173.35289	-61.48958	4.1844	0.00612	4.17828
174.7924	-61.80151	4.18474	0.00613	4.17861
176.23154	-62.9961	4.18507	0.00614	4.17893
177.67031	-62.44822	4.18541	0.00615	4.17926
179.1087	-60.195	4.18575	0.00617	4.17958
180.54673	-56.82374	4.18609	0.00618	4.17991
181.98439	-53.59493	4.18643	0.00619	4.18024
183.42168	-50.93575	4.18677	0.0062	4.18056
184.8586	-49.35027	4.18711	0.00622	4.18089
186.29514	-49.05668	4.18745	0.00623	4.18122
187.73132	-50.89225	4.18779	0.00624	4.18155
189.16713	-53.83229	4.18814	0.00626	4.18188
190.60257	-55.0848	4.18848	0.00627	4.18221
192.03764	-52.98617	4.18882	0.00628	4.18254
193.47234	-49.8376	4.18917	0.00629	4.18288
194.90667	-48.15256	4.18952	0.00631	4.18321
196.34064	-47.84717	4.18986	0.00632	4.18354
197.77423	-47.27028	4.19021	0.00633	4.18388
199.20746	-46.3488	4.19056	0.00635	4.18421
200.64031	-45.7415	4.1909	0.00636	4.18454
202.0728	-45.72478	4.19125	0.00637	4.18488
203.50492	-45.42117	4.1916	0.00639	4.18522
204.93667	-44.25163	4.19195	0.0064	4.18555
206.36805	-42.69376	4.1923	0.00641	4.18589
207.79907	-41.84198	4.19266	0.00643	4.18623
209.22971	-41.53762	4.19301	0.00644	4.18657
210.65999	-40.62528	4.19336	0.00645	4.18691
212.0899	-38.90646	4.19372	0.00647	4.18725
213.51944	-37.41549	4.19407	0.00648	4.18759
214.94862	-37.13657	4.19443	0.00649	4.18793
216.37742	-37.4151	4.19478	0.00651	4.18827
217.80586	-36.52183	4.19514	0.00652	4.18862
219.23393	-33.96136	4.19549	0.00653	4.18896
220.66164	-31.18625	4.19585	0.00655	4.1893
222.08898	-29.59246	4.19621	0.00656	4.18965
223.51595	-28.24503	4.19657	0.00658	4.18999
224.94255	-26.41042	4.19693	0.00659	4.19034
226.36878	-24.40387	4.19729	0.0066	4.19069
227.79465	-23.20921	4.19765	0.00662	4.19104
229.22016	-22.46814	4.19801	0.00663	4.19138
230.64529	-22.13371	4.19838	0.00665	4.19173
232.07006	-21.94495	4.19874	0.00666	4.19208
233.49447	-22.13045	4.19911	0.00667	4.19243
234.9185	-21.93617	4.19947	0.00669	4.19278
236.34217	-21.44436	4.19984	0.0067	4.19313
237.76548	-20.55947	4.2002	0.00672	4.19349
239.18842	-20.28801	4.20057	0.00673	4.19384
240.61099	-20.14542	4.20094	0.00674	4.19419
242.0332	-20.03575	4.20131	0.00676	4.19455
243.45504	-19.3255	4.20168	0.00677	4.1949
244.87652	-18.76938	4.20205	0.00679	4.19526
246.29763	-18.04796	4.20242	0.0068	4.19562
247.71837	-17.30392	4.20279	0.00682	4.19597
249.13875	-16.27419	4.20316	0.00683	4.19633
250.55877	-15.42485	4.20353	0.00685	4.19669
251.97842	-14.27489	4.20391	0.00686	4.19705
253.3977	-12.96023	4.20428	0.00687	4.19741
254.81662	-11.44114	4.20466	0.00689	4.19777
256.23518	-9.14794	4.20503	0.0069	4.19813
257.65337	-5.29489	4.20541	0.00692	4.19849
259.07119	-0.79159	4.20579	0.00693	4.19885
260.48865	3.34846	4.20617	0.00695	4.19922
261.90575	7.64402	4.20655	0.00696	4.19958
263.32248	12.00043	4.20692	0.00698	4.19995
264.73885	15.48752	4.20731	0.00699	4.20031
266.15486	18.18714	4.20769	0.00701	4.20068
267.5705	21.60755	4.20807	0.00702	4.20105
268.98578	24.89463	4.20845	0.00704	4.20141
270.40069	26.0629	4.20884	0.00705	4.20178
271.81524	23.97703	4.20922	0.00707	4.20215
273.22942	19.297	4.20961	0.00708	4.20252
274.64325	12.97495	4.20999	0.0071	4.20289
276.05671	6.44328	4.21038	0.00711	4.20326
277.4698	0.97401	4.21077	0.00713	4.20364
278.88254	-3.41709	4.21115	0.00715	4.20401
280.29491	-6.95555	4.21154	0.00716	4.20438
281.70691	-9.21016	4.21193	0.00718	4.20476
283.11856	-9.54986	4.21232	0.00719	4.20513
284.52984	-9.03753	4.21272	0.00721	4.20551
285.94076	-8.69763	4.21311	0.00722	4.20588
287.35131	-8.86333	4.2135	0.00724	4.20626
288.76151	-9.43861	4.21389	0.00726	4.20664
290.17134	-10.64137	4.21429	0.00727	4.20702
291.58081	-11.62949	4.21469	0.00729	4.2074
292.98992	-11.63666	4.21508	0.0073	4.20778
294.39866	-10.88311	4.21548	0.00732	4.20816
295.80705	-9.79931	4.21588	0.00733	4.20854
297.21507	-8.83739	4.21628	0.00735	4.20892
298.62273	-8.40543	4.21668	0.00737	4.20931
300.03002	-8.69603	4.21708	0.00738	4.20969
301.43696	-8.97522	4.21748	0.0074	4.21008
302.84354	-9.7856	4.21788	0.00742	4.21046
304.24975	-11.22568	4.21828	0.00743	4.21085
305.6556	-12.41759	4.21869	0.00745	4.21124
307.0611	-11.96838	4.21909	0.00746	4.21163
308.46623	-10.72841	4.2195	0.00748	4.21201
309.871	-9.77296	4.2199	0.0075	4.2124
311.2754	-9.34409	4.22031	0.00751	4.2128
312.67945	-8.67052	4.22072	0.00753	4.21319
314.08314	-7.88904	4.22113	0.00755	4.21358
315.48647	-7.81758	4.22154	0.00756	4.21397
316.88943	-8.58441	4.22195	0.00758	4.21437
318.29204	-8.94814	4.22236	0.0076	4.21476
319.69429	-8.33695	4.22277	0.00761	4.21516
321.09617	-7.86202	4.22318	0.00763	4.21555
322.4977	-8.40468	4.2236	0.00765	4.21595
323.89886	-8.99239	4.22401	0.00767	4.21635
325.29967	-8.93961	4.22443	0.00768	4.21675
326.70012	-8.76742	4.22484	0.0077	4.21715
328.1002	-8.72074	4.22526	0.00772	4.21755
329.49993	-7.8302	4.22568	0.00773	4.21795
330.8993	-6.60956	4.2261	0.00775	4.21835
332.29831	-6.49999	4.22652	0.00777	4.21875
333.69696	-7.64235	4.22694	0.00779	4.21916
335.09525	-8.42333	4.22736	0.0078	4.21956
336.49318	-8.39269	4.22779	0.00782	4.21996
337.89075	-7.9642	4.22821	0.00784	4.22037
339.28797	-7.70075	4.22863	0.00786	4.22078
340.68482	-7.45642	4.22906	0.00787	4.22119
342.08132	-7.13819	4.22949	0.00789	4.22159
343.47746	-6.49017	4.22991	0.00791	4.222
344.87323	-5.99948	4.23034	0.00793	4.22241
346.26866	-5.89503	4.23077	0.00794	4.22283
347.66372	-6.40598	4.2312	0.00796	4.22324
349.05842	-7.36	4.23163	0.00798	4.22365
350.45277	-8.45965	4.23206	0.008	4.22407
351.84676	-8.64571	4.2325	0.00802	4.22448
353.24039	-7.74147	4.23293	0.00804	4.2249
354.63366	-6.35819	4.23337	0.00805	4.22531
356.02658	-5.3071	4.2338	0.00807	4.22573
357.41914	-4.65935	4.23424	0.00809	4.22615
358.81134	-4.70225	4.23468	0.00811	4.22657
360.20318	-5.42616	4.23511	0.00813	4.22699
361.59467	-6.58082	4.23555	0.00815	4.22741
362.9858	-7.14183	4.23599	0.00816	4.22783
364.37657	-6.84377	4.23643	0.00818	4.22825
365.76698	-6.08006	4.23688	0.0082	4.22868
367.15704	-5.94462	4.23732	0.00822	4.2291
368.54674	-6.35704	4.23776	0.00824	4.22953
369.93609	-6.70929	4.23821	0.00826	4.22995
371.32507	-6.33478	4.23866	0.00828	4.23038
372.71371	-5.50683	4.2391	0.0083	4.23081
374.10198	-4.64077	4.23955	0.00831	4.23124
375.4899	-4.40114	4.24	0.00833	4.23167
376.87746	-5.01775	4.24045	0.00835	4.2321
378.26467	-6.14313	4.2409	0.00837	4.23253
379.65152	-6.73183	4.24135	0.00839	4.23296
381.03802	-6.56708	4.24181	0.00841	4.2334
382.42415	-6.1411	4.24226	0.00843	4.23383
383.80994	-5.8723	4.24272	0.00845	4.23427
385.19537	-5.72979	4.24317	0.00847	4.2347
386.58044	-5.8145	4.24363	0.00849	4.23514
387.96516	-6.35896	4.24409	0.00851	4.23558
389.34952	-6.97314	4.24455	0.00853	4.23602
390.73352	-7.20836	4.24501	0.00855	4.23646
392.11718	-6.9592	4.24547	0.00857	4.2369
393.50047	-6.96385	4.24593	0.00859	4.23734
394.88341	-7.58876	4.24639	0.00861	4.23778
396.266	-8.16699	4.24686	0.00863	4.23823
397.64823	-8.16118	4.24732	0.00865	4.23867
399.03011	-7.98683	4.24779	0.00867	4.23912
400.41164	-8.26311	4.24825	0.00869	4.23957
401.7928	-8.01293	4.24872	0.00871	4.24001
403.17362	-6.77492	4.24919	0.00873	4.24046
404.55408	-5.26819	4.24966	0.00875	4.24091
405.93418	-4.9916	4.25013	0.00877	4.24136
407.31394	-5.52036	4.25061	0.00879	4.24181
408.69334	-5.8655	4.25108	0.00881	4.24227
410.07238	-5.56811	4.25155	0.00883	4.24272
411.45107	-5.35623	4.25203	0.00885	4.24318
412.82941	-5.60697	4.25251	0.00887	4.24363
414.20739	-6.14451	4.25298	0.00889	4.24409
415.58502	-6.66498	4.25346	0.00892	4.24455
416.9623	-7.01644	4.25394	0.00894	4.24501
418.33922	-6.9206	4.25442	0.00896	4.24547
419.71579	-6.16061	4.25491	0.00898	4.24593
421.09201	-5.17885	4.25539	0.009	4.24639
422.46787	-5.00623	4.25587	0.00902	4.24685
423.84339	-5.40892	4.25636	0.00904	4.24732
425.21855	-5.58903	4.25685	0.00906	4.24778
426.59335	-5.03753	4.25733	0.00909	4.24825
427.96781	-4.58215	4.25782	0.00911	4.24871
429.34191	-4.83185	4.25831	0.00913	4.24918
430.71566	-6.03873	4.2588	0.00915	4.24965
432.08905	-7.38564	4.25929	0.00917	4.25012
433.4621	-7.45221	4.25979	0.0092	4.25059
434.83479	-6.77888	4.26028	0.00922	4.25106
436.20713	-6.68452	4.26078	0.00924	4.25154
437.57912	-7.85072	4.26127	0.00926	4.25201
438.95075	-7.95242	4.26177	0.00928	4.25249
440.32204	-6.61444	4.26227	0.00931	4.25296
441.69297	-4.33726	4.26277	0.00933	4.25344
443.06356	-3.51595	4.26327	0.00935	4.25392
444.43379	-3.8654	4.26377	0.00937	4.2544
445.80367	-5.61	4.26428	0.0094	4.25488
447.17319	-6.29128	4.26478	0.00942	4.25536
448.54237	-5.21283	4.26529	0.00944	4.25585
449.9112	-1.4564	4.2658	0.00946	4.25633
451.27967	0.83417	4.2663	0.00949	4.25682
452.6478	0.41656	4.26681	0.00951	4.2573
454.01557	-2.21286	4.26732	0.00953	4.25779
455.38299	-3.49263	4.26783	0.00956	4.25828
456.75006	-4.44317	4.26835	0.00958	4.25877
458.11679	-5.61041	4.26886	0.0096	4.25926
459.48316	-6.99832	4.26938	0.00963	4.25975
460.84918	-7.43722	4.26989	0.00965	4.26024
462.21485	-7.52198	4.27041	0.00967	4.26074
463.58017	-7.53094	4.27093	0.0097	4.26123
464.94514	-7.21441	4.27145	0.00972	4.26173
466.30976	-6.6556	4.27197	0.00974	4.26223
467.67403	-6.38707	4.27249	0.00977	4.26273
469.03796	-6.50395	4.27302	0.00979	4.26323
470.40153	-6.67619	4.27354	0.00982	4.26373
471.76475	-6.98296	4.27407	0.00984	4.26423
473.12762	-7.32588	4.2746	0.00986	4.26473
474.49015	-7.17608	4.27513	0.00989	4.26524
475.85232	-6.2102	4.27566	0.00991	4.26574
477.21415	-5.20052	4.27619	0.00994	4.26625
478.57563	-4.3844	4.27672	0.00996	4.26676
479.93675	-4.06773	4.27725	0.00999	4.26727
481.29753	-4.3269	4.27779	0.01001	4.26778
482.65796	-5.64827	4.27833	0.01004	4.26829
484.01804	-6.72756	4.27886	0.01006	4.2688
485.37778	-6.50671	4.2794	0.01008	4.26932
486.73716	-4.80461	4.27994	0.01011	4.26983
488.0962	-3.60129	4.28048	0.01014	4.27035
489.45489	-4.29199	4.28103	0.01016	4.27087
490.81323	-6.09174	4.28157	0.01019	4.27138
492.17122	-6.91333	4.28212	0.01021	4.2719
493.52886	-6.03624	4.28266	0.01024	4.27243
494.88616	-4.9202	4.28321	0.01026	4.27295
496.24311	-4.44497	4.28376	0.01029	4.27347
497.59971	-4.76438	4.28431	0.01031	4.274
498.95596	-4.91294	4.28486	0.01034	4.27452
500.31187	-4.54399	4.28542	0.01036	4.27505
501.66742	-3.56248	4.28597	0.01039	4.27558
503.02263	-3.33282	4.28653	0.01042	4.27611
504.3775	-4.28979	4.28708	0.01044	4.27664
505.73201	-5.75213	4.28764	0.01047	4.27717
507.08618	-6.42412	4.2882	0.0105	4.27771
508.44001	-6.31027	4.28876	0.01052	4.27824
509.79348	-5.8756	4.28933	0.01055	4.27878
511.14661	-5.37683	4.28989	0.01058	4.27932
512.49939	-4.89305	4.29046	0.0106	4.27985
513.85183	-4.2051	4.29102	0.01063	4.28039
515.20392	-3.68818	4.29159	0.01066	4.28094
516.55566	-3.76107	4.29216	0.01068	4.28148
517.90706	-4.74281	4.29273	0.01071	4.28202
519.25811	-5.18638	4.29331	0.01074	4.28257
520.60881	-4.5759	4.29388	0.01076	4.28312
521.95917	-3.05954	4.29445	0.01079	4.28366
523.30918	-2.0945	4.29503	0.01082	4.28421
524.65885	-1.88554	4.29561	0.01085	4.28476
526.00817	-2.42267	4.29619	0.01087	4.28531
527.35715	-2.71122	4.29677	0.0109	4.28587
528.70578	-2.57597	4.29735	0.01093	4.28642
530.05406	-2.42849	4.29794	0.01096	4.28698
531.402	-2.8118	4.29852	0.01099	4.28754
532.74959	-3.51703	4.29911	0.01101	4.28809
534.09684	-4.13919	4.2997	0.01104	4.28865
535.44374	-4.60785	4.30029	0.01107	4.28922
536.7903	-4.73336	4.30088	0.0111	4.28978
538.13652	-4.5614	4.30147	0.01113	4.29034
539.48239	-4.52053	4.30207	0.01116	4.29091
540.82791	-4.80873	4.30266	0.01119	4.29148
542.17309	-4.84248	4.30326	0.01121	4.29204
543.51792	-4.21188	4.30386	0.01124	4.29261
544.86242	-3.38111	4.30446	0.01127	4.29318
546.20656	-2.79522	4.30506	0.0113	4.29376
547.55036	-2.6512	4.30566	0.01133	4.29433
548.89382	-3.10253	4.30627	0.01136	4.29491
550.23694	-4.18586	4.30687	0.01139	4.29548
551.57971	-5.12097	4.30748	0.01142	4.29606
552.92213	-5.20104	4.30809	0.01145	4.29664
554.26422	-4.50938	4.3087	0.01148	4.29722
555.60596	-3.68982	4.30931	0.01151	4.2978
556.94735	-3.31808	4.30993	0.01154	4.29839
558.2884	-3.54646	4.31054	0.01157	4.29897
559.62911	-3.80352	4.31116	0.0116	4.29956
560.96948	-3.58175	4.31178	0.01163	4.30015
562.3095	-2.90251	4.3124	0.01166	4.30074
563.64918	-2.56321	4.31302	0.01169	4.30133
564.98851	-2.71145	4.31365	0.01172	4.30192
566.32751	-3.26333	4.31427	0.01175	4.30252
567.66616	-3.80673	4.3149	0.01178	4.30311
569.00446	-4.32251	4.31553	0.01182	4.30371
570.34243	-4.37521	4.31616	0.01185	4.30431
571.68005	-3.70991	4.31679	0.01188	4.30491
573.01733	-3.12534	4.31742	0.01191	4.30551
574.35427	-3.57047	4.31806	0.01194	4.30611
575.69086	-4.15253	4.31869	0.01197	4.30672
577.02712	-3.47551	4.31933	0.012	4.30733
578.36303	-1.96354	4.31997	0.01204	4.30793
579.6986	-1.56059	4.32061	0.01207	4.30854
581.03382	-2.23094	4.32125	0.0121	4.30915
582.36871	-3.0918	4.3219	0.01213	4.30977
583.70325	-3.25238	4.32255	0.01217	4.31038
585.03745	-3.39245	4.32319	0.0122	4.311
586.37131	-3.66417	4.32384	0.01223	4.31161
587.70483	-4.15952	4.3245	0.01226	4.31223
589.03801	-4.43629	4.32515	0.0123	4.31285
590.37085	-4.40452	4.3258	0.01233	4.31347
591.70334	-4.27688	4.32646	0.01236	4.3141
593.0355	-4.26486	4.32712	0.0124	4.31472
594.36731	-4.54336	4.32778	0.01243	4.31535
595.69878	-4.55071	4.32844	0.01246	4.31598
597.02991	-4.30513	4.3291	0.0125	4.31661
598.3607	-4.16529	4.32977	0.01253	4.31724
599.69115	-4.77701	4.33044	0.01256	4.31787
601.02126	-5.41418	4.33111	0.0126	4.31851
602.35103	-5.49541	4.33178	0.01263	4.31915
603.68046	-4.84704	4.33245	0.01267	4.31978
605.00955	-4.2682	4.33312	0.0127	4.32042
606.3383	-3.61023	4.3338	0.01274	4.32106
607.66671	-2.95679	4.33448	0.01277	4.32171
608.99477	-2.49752	4.33516	0.01281	4.32235
610.3225	-3.41732	4.33584	0.01284	4.323
611.64989	-4.77164	4.33652	0.01288	4.32365
612.97694	-5.04079	4.33721	0.01291	4.3243
614.30365	-3.47781	4.3379	0.01295	4.32495
615.63002	-2.1214	4.33858	0.01298	4.3256
616.95605	-2.10404	4.33927	0.01302	4.32626
618.28174	-3.06575	4.33997	0.01305	4.32691
619.60709	-3.3553	4.34066	0.01309	4.32757
620.9321	-2.83471	4.34136	0.01312	4.32823
622.25678	-2.20803	4.34206	0.01316	4.3289
623.58111	-2.49427	4.34276	0.0132	4.32956
624.90511	-3.1867	4.34346	0.01323	4.33023
626.22876	-3.51973	4.34416	0.01327	4.33089
627.55208	-3.09625	4.34487	0.01331	4.33156
628.87506	-2.79251	4.34558	0.01334	4.33223
630.1977	-2.8281	4.34629	0.01338	4.33291
631.52001	-2.76907	4.347	0.01342	4.33358
632.84197	-2.29693	4.34771	0.01346	4.33426
634.1636	-2.05217	4.34843	0.01349	4.33493
635.48488	-2.34041	4.34915	0.01353	4.33561
636.80583	-2.74521	4.34986	0.01357	4.3363
638.12644	-2.97612	4.35059	0.01361	4.33698
639.44672	-3.01807	4.35131	0.01364	4.33767
640.76665	-2.95293	4.35204	0.01368	4.33835
642.08625	-2.736	4.35276	0.01372	4.33904
643.40551	-2.48253	4.35349	0.01376	4.33973
644.72444	-2.35751	4.35422	0.0138	4.34043
646.04302	-2.57134	4.35496	0.01384	4.34112
647.36127	-2.83189	4.35569	0.01388	4.34182
648.67918	-2.94401	4.35643	0.01392	4.34252
649.99676	-2.71939	4.35717	0.01395	4.34322
651.31399	-2.36201	4.35791	0.01399	4.34392
652.63089	-1.36884	4.35866	0.01403	4.34462
653.94746	-0.31603	4.3594	0.01407	4.34533
655.26368	0.20479	4.36015	0.01411	4.34604
656.57957	-0.36223	4.3609	0.01415	4.34675
657.89512	-0.76373	4.36165	0.01419	4.34746
659.21034	-0.41633	4.36241	0.01423	4.34817
660.52522	0.3901	4.36316	0.01427	4.34889
661.83976	0.92076	4.36392	0.01432	4.34961
663.15397	0.9778	4.36468	0.01436	4.35033
664.46784	0.34906	4.36545	0.0144	4.35105
665.78138	-0.96282	4.36621	0.01444	4.35177
667.09458	-1.81949	4.36698	0.01448	4.3525
668.40744	-2.13518	4.36775	0.01452	4.35323
669.71997	-2.79402	4.36852	0.01456	4.35396
671.03216	-3.63401	4.36929	0.0146	4.35469
672.34401	-3.07013	4.37007	0.01465	4.35542
673.65553	-1.622	4.37085	0.01469	4.35616
674.96672	-1.34603	4.37163	0.01473	4.3569
676.27757	-2.12437	4.37241	0.01477	4.35764
677.58808	-2.44597	4.3732	0.01482	4.35838
678.89826	-2.11402	4.37398	0.01486	4.35912
680.2081	-2.55077	4.37477	0.0149	4.35987
681.51761	-3.25961	4.37556	0.01495	4.36062
682.82679	-3.12509	4.37636	0.01499	4.36137
684.13563	-1.99376	4.37715	0.01503	4.36212
685.44413	-1.37015	4.37795	0.01508	4.36288
686.7523	-1.32296	4.37875	0.01512	4.36363
688.06014	-1.12178	4.37956	0.01517	4.36439
689.36764	-0.73234	4.38036	0.01521	4.36515
690.6748	-0.91457	4.38117	0.01525	4.36592
691.98163	-1.79217	4.38198	0.0153	4.36668
693.28813	-2.76655	4.38279	0.01534	4.36745
694.5943	-3.27411	4.38361	0.01539	4.36822
695.90012	-2.77368	4.38443	0.01543	4.36899
697.20562	-1.62039	4.38525	0.01548	4.36977
698.51078	-0.8953	4.38607	0.01553	4.37054
699.81561	-0.85318	4.38689	0.01557	4.37132
701.1201	-1.18371	4.38772	0.01562	4.3721
702.42426	-1.55675	4.38855	0.01566	4.37289
703.72809	-2.58354	4.38938	0.01571	4.37367
705.03159	-3.4831	4.39022	0.01576	4.37446
706.33475	-3.80512	4.39105	0.0158	4.37525
707.63757	-3.03192	4.39189	0.01585	4.37604
708.94007	-2.45773	4.39273	0.0159	4.37684
710.24223	-2.4447	4.39358	0.01595	4.37763
711.54406	-2.86475	4.39443	0.01599	4.37843
712.84555	-2.51348	4.39527	0.01604	4.37923
714.14671	-1.78227	4.39613	0.01609	4.38004
715.44754	-1.77973	4.39698	0.01614	4.38084
716.74804	-2.94612	4.39784	0.01619	4.38165
718.0482	-3.99971	4.3987	0.01623	4.38246
719.34803	-3.87515	4.39956	0.01628	4.38328
720.64753	-3.25375	4.40043	0.01633	4.38409
721.9467	-3.10381	4.40129	0.01638	4.38491
723.24554	-3.48431	4.40216	0.01643	4.38573
724.54404	-3.57601	4.40304	0.01648	4.38655
725.84221	-3.48599	4.40391	0.01653	4.38738
727.14005	-3.59117	4.40479	0.01658	4.38821
728.43756	-3.88384	4.40567	0.01663	4.38904
729.73473	-3.9339	4.40655	0.01668	4.38987
731.03158	-3.68239	4.40744	0.01673	4.39071
732.32809	-3.79429	4.40833	0.01678	4.39154
733.62427	-3.95545	4.40922	0.01683	4.39238
734.92012	-3.8682	4.41011	0.01689	4.39323
736.21564	-3.20613	4.41101	0.01694	4.39407
737.51082	-2.9337	4.41191	0.01699	4.39492
738.80568	-2.70067	4.41281	0.01704	4.39577
740.1002	-2.04083	4.41372	0.01709	4.39662
741.3944	-1.0288	4.41462	0.01715	4.39748
742.68826	-1.08417	4.41554	0.0172	4.39834
743.98179	-2.19552	4.41645	0.01725	4.3992
745.27499	-2.74847	4.41737	0.01731	4.40006
746.56786	-2.09345	4.41828	0.01736	4.40093
747.8604	-1.16668	4.41921	0.01741	4.40179
749.15261	-1.33811	4.42013	0.01747	4.40266
750.44449	-2.34435	4.42106	0.01752	4.40354
751.73604	-3.57512	4.42199	0.01758	4.40441
753.02726	-3.92783	4.42292	0.01763	4.40529
754.31815	-3.4648	4.42386	0.01769	4.40618
755.60871	-2.38521	4.4248	0.01774	4.40706
756.89894	-1.49275	4.42574	0.0178	4.40795
758.18883	-0.9059	4.42669	0.01785	4.40884
759.4784	-0.83937	4.42764	0.01791	4.40973
760.76764	-0.6915	4.42859	0.01796	4.41062
762.05655	-0.23297	4.42954	0.01802	4.41152
763.34513	0.12247	4.4305	0.01808	4.41242
764.63339	-0.61843	4.43146	0.01813	4.41333
765.92131	-2.28136	4.43242	0.01819	4.41423
767.2089	-3.19785	4.43339	0.01825	4.41514
768.49616	-2.44839	4.43436	0.01831	4.41605
769.7831	-0.92602	4.43533	0.01836	4.41697
771.0697	-0.76604	4.43631	0.01842	4.41789
772.35598	-1.76857	4.43729	0.01848	4.41881
773.64193	-2.83338	4.43827	0.01854	4.41973
774.92755	-2.90314	4.43925	0.0186	4.42066
776.21284	-2.94552	4.44024	0.01866	4.42159
777.4978	-2.91971	4.44123	0.01872	4.42252
778.78243	-3.04011	4.44223	0.01878	4.42345
780.06674	-3.03891	4.44323	0.01884	4.42439
781.35072	-3.20907	4.44423	0.0189	4.42533
782.63437	-2.73268	4.44523	0.01896	4.42628
783.91769	-1.98137	4.44624	0.01902	4.42722
785.20068	-1.5739	4.44725	0.01908	4.42817
786.48334	-2.17119	4.44827	0.01914	4.42913
787.76568	-2.74057	4.44928	0.0192	4.43008
789.04769	-2.71679	4.4503	0.01926	4.43104
790.32937	-2.03151	4.45133	0.01933	4.432
791.61073	-1.69931	4.45236	0.01939	4.43297
792.89175	-2.105	4.45339	0.01945	4.43393
794.17245	-3.05112	4.45442	0.01952	4.43491
795.45282	-3.82023	4.45546	0.01958	4.43588
796.73287	-3.89301	4.4565	0.01964	4.43686
798.01258	-3.38818	4.45755	0.01971	4.43784
799.29197	-2.85093	4.45859	0.01977	4.43882
800.57104	-2.84874	4.45964	0.01984	4.43981
801.84977	-2.82007	4.4607	0.0199	4.4408
803.12818	-2.56205	4.46176	0.01997	4.44179
804.40627	-2.52993	4.46282	0.02003	4.44279
805.68402	-3.07102	4.46389	0.0201	4.44379
806.96145	-3.47202	4.46496	0.02016	4.44479
808.23856	-3.40865	4.46603	0.02023	4.4458
809.51533	-3.19301	4.4671	0.0203	4.44681
810.79178	-2.85819	4.46818	0.02036	4.44782
812.06791	-2.18478	4.46927	0.02043	4.44884
813.34371	-1.16275	4.47035	0.0205	4.44986
814.61918	-0.39592	4.47145	0.02057	4.45088
815.89432	-0.43229	4.47254	0.02064	4.4519
817.16915	-1.43309	4.47364	0.0207	4.45293
818.44364	-2.65574	4.47474	0.02077	4.45397
819.71781	-3.51138	4.47585	0.02084	4.455
820.99165	-3.58976	4.47696	0.02091	4.45604
822.26517	-2.85825	4.47807	0.02098	4.45709
823.53836	-1.42135	4.47919	0.02105	4.45813
824.81123	-0.13074	4.48031	0.02112	4.45918
826.08377	0.3189	4.48143	0.02119	4.46024
827.35599	-0.38054	4.48256	0.02127	4.46129
828.62788	-1.89024	4.48369	0.02134	4.46236
829.89945	-3.22712	4.48483	0.02141	4.46342
831.17069	-3.29496	4.48597	0.02148	4.46449
832.4416	-2.07278	4.48711	0.02155	4.46556
833.7122	-1.34066	4.48826	0.02163	4.46663
834.98246	-1.92623	4.48941	0.0217	4.46771
836.25241	-3.06577	4.49057	0.02177	4.46879
837.52202	-3.13792	4.49173	0.02185	4.46988
838.79132	-2.35027	4.49289	0.02192	4.47097
840.06029	-1.67134	4.49406	0.022	4.47206
841.32893	-1.96351	4.49523	0.02207	4.47316
842.59725	-2.88167	4.49641	0.02215	4.47426
843.86525	-3.26696	4.49759	0.02223	4.47537
845.13292	-2.65477	4.49878	0.0223	4.47647
846.40027	-1.73872	4.49996	0.02238	4.47759
847.6673	-1.86289	4.50116	0.02246	4.4787
848.934	-2.72695	4.50235	0.02253	4.47982
850.20038	-3.48355	4.50356	0.02261	4.48095
851.46643	-3.30142	4.50476	0.02269	4.48207
852.73216	-2.62121	4.50597	0.02277	4.4832
853.99757	-2.21561	4.50719	0.02285	4.48434
855.26265	-2.94549	4.5084	0.02293	4.48548
856.52741	-4.32924	4.50963	0.02301	4.48662
857.79185	-4.98714	4.51085	0.02309	4.48777
859.05596	-4.27815	4.51209	0.02317	4.48892
860.31975	-3.04934	4.51332	0.02325	4.49007
861.58322	-2.53045	4.51456	0.02333	4.49123
862.84637	-2.60071	4.51581	0.02341	4.4924
864.10919	-2.96975	4.51706	0.02349	4.49356
865.37169	-3.43034	4.51831	0.02358	4.49474
866.63387	-3.99675	4.51957	0.02366	4.49591
867.89573	-3.66198	4.52083	0.02374	4.49709
869.15726	-2.71145	4.5221	0.02383	4.49827
870.41847	-2.2369	4.52337	0.02391	4.49946
871.67936	-2.68913	4.52465	0.024	4.50065
872.93992	-2.85634	4.52593	0.02408	4.50185
874.20017	-1.91486	4.52722	0.02417	4.50305
875.46009	-0.56156	4.52851	0.02425	4.50426
876.71969	0.38676	4.5298	0.02434	4.50547
877.97897	-0.04735	4.53111	0.02443	4.50668
879.23793	-1.35468	4.53241	0.02451	4.5079
880.49656	-2.7199	4.53372	0.0246	4.50912
881.75487	-2.88163	4.53504	0.02469	4.51035
883.01287	-2.68936	4.53635	0.02478	4.51158
884.27054	-2.82975	4.53768	0.02487	4.51281
885.52789	-3.25491	4.53901	0.02496	4.51405
886.78491	-2.9355	4.54034	0.02505	4.5153
888.04162	-2.16595	4.54168	0.02514	4.51655
889.29801	-1.91826	4.54303	0.02523	4.5178
890.55407	-2.19408	4.54438	0.02532	4.51906
891.80982	-2.41139	4.54573	0.02541	4.52032
893.06524	-2.27163	4.54709	0.0255	4.52159
894.32034	-2.19989	4.54846	0.0256	4.52286
895.57512	-1.9671	4.54983	0.02569	4.52414
896.82958	-1.67868	4.5512	0.02578	4.52542
898.08372	-1.43079	4.55258	0.02588	4.5267
899.33754	-1.5879	4.55397	0.02597	4.52799
900.59104	-1.94491	4.55536	0.02607	4.52929
901.84422	-2.49546	4.55675	0.02617	4.53059
903.09708	-2.73144	4.55816	0.02626	4.53189
904.34962	-2.73255	4.55956	0.02636	4.5332
905.60184	-2.65468	4.56097	0.02646	4.53452
906.85374	-2.94661	4.56239	0.02655	4.53584
908.10532	-3.12553	4.56381	0.02665	4.53716
909.35658	-3.2727	4.56524	0.02675	4.53849
910.60752	-3.46543	4.56668	0.02685	4.53983
911.85814	-3.76428	4.56812	0.02695	4.54117
913.10845	-3.43418	4.56956	0.02705	4.54251
914.35843	-2.55257	4.57101	0.02715	4.54386
915.60809	-1.91864	4.57247	0.02725	4.54521
916.85743	-1.90244	4.57393	0.02736	4.54657
918.10646	-1.9396	4.5754	0.02746	4.54794
919.35516	-1.97402	4.57687	0.02756	4.54931
920.60355	-2.59772	4.57835	0.02767	4.55068
921.85162	-3.19696	4.57984	0.02777	4.55206
923.09937	-2.79617	4.58133	0.02788	4.55345
924.3468	-1.61054	4.58282	0.02798	4.55484
925.59391	-0.85002	4.58433	0.02809	4.55624
926.8407	-0.64213	4.58583	0.02819	4.55764
928.08717	-0.6512	4.58735	0.0283	4.55905
929.33333	-0.89344	4.58887	0.02841	4.56046
930.57917	-1.43074	4.59039	0.02852	4.56188
931.82469	-1.97959	4.59193	0.02863	4.5633
933.06989	-2.03496	4.59347	0.02874	4.56473
934.31477	-1.9053	4.59501	0.02885	4.56616
935.55933	-1.94531	4.59656	0.02896	4.5676
936.80358	-2.48109	4.59812	0.02907	4.56905
938.04751	-3.04487	4.59968	0.02918	4.5705
939.29112	-3.14076	4.60125	0.02929	4.57196
940.53441	-2.49712	4.60283	0.02941	4.57342
941.77739	-1.75406	4.60441	0.02952	4.57489
943.02005	-1.50408	4.606	0.02964	4.57636
944.26239	-1.73496	4.60759	0.02975	4.57784
945.50441	-1.96711	4.6092	0.02987	4.57933
946.74612	-1.87616	4.61081	0.02998	4.58082
947.98751	-1.02642	4.61242	0.0301	4.58232
949.22858	0.00192	4.61404	0.03022	4.58382
950.46934	0.17936	4.61567	0.03034	4.58533
951.70977	-0.36921	4.6173	0.03046	4.58685
952.9499	-0.31288	4.61895	0.03058	4.58837
954.1897	0.27014	4.62059	0.0307	4.5899
955.42919	0.61987	4.62225	0.03082	4.59143
956.66836	0.98949	4.62391	0.03094	4.59297
957.90721	1.74786	4.62558	0.03106	4.59452
959.14575	1.6398	4.62726	0.03119	4.59607
960.38397	0.00606	4.62894	0.03131	4.59763
961.62188	-1.76249	4.63063	0.03143	4.59919
962.85947	-1.99115	4.63233	0.03156	4.60077
964.09674	-1.26703	4.63403	0.03169	4.60234
965.3337	-1.00342	4.63574	0.03181	4.60393
966.57034	-1.4055	4.63746	0.03194	4.60552
967.80666	-1.5301	4.63918	0.03207	4.60712
969.04267	-1.11554	4.64092	0.0322	4.60872
970.27837	-0.70216	4.64266	0.03233	4.61033
971.51375	-0.7845	4.64441	0.03246	4.61195
972.74881	-1.28939	4.64616	0.03259	4.61357
973.98356	-1.57776	4.64792	0.03272	4.6152
975.21799	-0.95867	4.64969	0.03286	4.61684
976.4521	0.18602	4.65147	0.03299	4.61848
977.6859	0.63752	4.65326	0.03312	4.62013
978.91939	-0.04893	4.65505	0.03326	4.62179
980.15256	-0.72387	4.65685	0.03339	4.62346
981.38542	-0.85316	4.65866	0.03353	4.62513
982.61796	-0.51015	4.66047	0.03367	4.62681
983.85018	0.12714	4.6623	0.03381	4.62849
985.0821	1.48114	4.66413	0.03395	4.63018
986.31369	2.49417	4.66597	0.03409	4.63188
987.54497	2.16	4.66782	0.03423	4.63359
988.77594	0.93847	4.66967	0.03437	4.63531
990.0066	0.17085	4.67154	0.03451	4.63703
991.23693	-0.27402	4.67341	0.03466	4.63876
992.46696	-1.13674	4.67529	0.0348	4.64049
993.69667	-1.81413	4.67718	0.03495	4.64224
994.92606	-1.69984	4.67908	0.03509	4.64399
996.15515	-1.141	4.68098	0.03524	4.64575
997.38392	-0.94725	4.6829	0.03539	4.64751
998.61237	-1.06575	4.68482	0.03553	4.64929
999.84051	-1.38798	4.68675	0.03568	4.65107
1001.06834	-1.3012	4.68869	0.03584	4.65286
1002.29585	-0.85442	4.69064	0.03599	4.65465
1003.52305	-0.76424	4.6926	0.03614	4.65646
1004.74994	-1.87598	4.69456	0.03629	4.65827
1005.97651	-3.03964	4.69654	0.03645	4.66009
1007.20277	-3.2298	4.69852	0.0366	4.66192
1008.42872	-2.37797	4.70051	0.03676	4.66376
1009.65435	-1.37684	4.70252	0.03691	4.6656
1010.87967	-0.69869	4.70453	0.03707	4.66745
1012.10468	-0.69127	4.70655	0.03723	4.66932
1013.32937	-1.14367	4.70858	0.03739	4.67118
1014.55375	-1.36354	4.71062	0.03755	4.67306
1015.77782	-0.75381	4.71266	0.03772	4.67495
1017.00158	-0.02968	4.71472	0.03788	4.67684
1018.22502	-0.54915	4.71679	0.03804	4.67874
1019.44815	-2.91599	4.71886	0.03821	4.68066
1020.67097	-4.74128	4.72095	0.03837	4.68258
1021.89347	-4.46477	4.72304	0.03854	4.6845
1023.11567	-2.7849	4.72515	0.03871	4.68644
1024.33755	-1.99687	4.72727	0.03888	4.68839
1025.55912	-1.9588	4.72939	0.03905	4.69034
1026.78038	-1.50863	4.73152	0.03922	4.6923
1028.00132	-0.53387	4.73367	0.03939	4.69428
1029.22196	0.15086	4.73582	0.03957	4.69626
1030.44228	-0.05643	4.73799	0.03974	4.69825
1031.66229	-0.24854	4.74017	0.03992	4.70025
1032.88199	-0.00331	4.74235	0.04009	4.70226
1034.10137	0.47698	4.74455	0.04027	4.70428
1035.32045	0.4788	4.74675	0.04045	4.7063
1036.53921	-0.36312	4.74897	0.04063	4.70834
1037.75767	-1.36716	4.7512	0.04081	4.71038
1038.97581	-1.61166	4.75344	0.041	4.71244
1040.19364	-0.05319	4.75568	0.04118	4.71451
1041.41116	1.44229	4.75794	0.04136	4.71658
1042.62836	1.72653	4.76022	0.04155	4.71866
1043.84526	0.84319	4.7625	0.04174	4.72076
1045.06185	0.88823	4.76479	0.04193	4.72286
1046.27812	1.27375	4.76709	0.04212	4.72498
1047.49409	1.78468	4.76941	0.04231	4.7271
1048.70974	1.88186	4.77173	0.0425	4.72923
1049.92509	1.71612	4.77407	0.04269	4.73138
1051.14012	0.70641	4.77642	0.04289	4.73353
1052.35484	0.19653	4.77878	0.04309	4.7357
1053.56926	0.69069	4.78115	0.04328	4.73787
1054.78336	1.47923	4.78354	0.04348	4.74006
1055.99715	1.37985	4.78593	0.04368	4.74225
1057.21063	0.83139	4.78834	0.04388	4.74446
1058.42381	0.09793	4.79076	0.04409	4.74667
1059.63667	-0.29845	4.79319	0.04429	4.7489
1060.84922	-0.20538	4.79564	0.0445	4.75114
1062.06147	0.60847	4.79809	0.0447	4.75339
1063.2734	1.34033	4.80056	0.04491	4.75565
1064.48502	1.76359	4.80304	0.04512	4.75792
1065.69634	1.20534	4.80553	0.04533	4.7602
1066.90734	0.48249	4.80804	0.04555	4.76249
1068.11804	0.31385	4.81056	0.04576	4.7648
1069.32842	0.853	4.81309	0.04598	4.76711
1070.5385	0.79238	4.81563	0.04619	4.76944
1071.74827	0.02945	4.81819	0.04641	4.77178
1072.95773	-0.9019	4.82076	0.04663	4.77413
1074.16688	-1.42751	4.82334	0.04685	4.77649
1075.37572	-1.1468	4.82594	0.04708	4.77887
1076.58425	-0.23675	4.82855	0.0473	4.78125
1077.79247	0.46906	4.83118	0.04753	4.78365
1079.00039	0.48581	4.83381	0.04775	4.78606
1080.20799	0.49379	4.83646	0.04798	4.78848
1081.41529	0.601	4.83913	0.04821	4.79091
1082.62228	0.25406	4.84181	0.04845	4.79336
1083.82896	-0.6729	4.8445	0.04868	4.79582
1085.03534	-1.33518	4.84721	0.04892	4.79829
1086.2414	-1.42656	4.84993	0.04915	4.80077
1087.44716	-1.44397	4.85266	0.04939	4.80327
1088.65261	-1.76994	4.85541	0.04963	4.80578
1089.85775	-1.78101	4.85818	0.04988	4.8083
1091.06258	-1.12611	4.86096	0.05012	4.81083
1092.2671	-0.62063	4.86375	0.05037	4.81338
1093.47132	-0.96786	4.86656	0.05061	4.81594
1094.67523	-1.35326	4.86938	0.05086	4.81852
1095.87883	-0.63592	4.87222	0.05112	4.82111
1097.08213	0.32449	4.87508	0.05137	4.82371
1098.28511	0.31434	4.87794	0.05162	4.82632
1099.48779	-0.74809	4.88083	0.05188	4.82895
1100.69017	-1.46009	4.88373	0.05214	4.83159
1101.89223	-1.53763	4.88665	0.0524	4.83425
1103.09399	-1.03481	4.88958	0.05266	4.83692
1104.29544	-0.33449	4.89253	0.05293	4.8396
1105.49659	0.53851	4.89549	0.05319	4.8423
1106.69742	0.91849	4.89847	0.05346	4.84501
1107.89795	0.68562	4.90147	0.05373	4.84774
1109.09818	0.31408	4.90449	0.054	4.85048
1110.2981	0.18672	4.90752	0.05428	4.85324
1111.49771	0.02868	4.91056	0.05455	4.85601
1112.69701	-0.28449	4.91363	0.05483	4.8588
1113.89601	-0.62304	4.91671	0.05511	4.8616
1115.0947	-1.01547	4.91981	0.05539	4.86442
1116.29309	-1.73515	4.92293	0.05568	4.86725
1117.49117	-2.31821	4.92606	0.05596	4.8701
1118.68894	-2.47014	4.92921	0.05625	4.87296
1119.88641	-1.79952	4.93238	0.05654	4.87584
1121.08357	-0.94568	4.93557	0.05684	4.87873
1122.28042	-0.11096	4.93877	0.05713	4.88164
1123.47697	0.16588	4.942	0.05743	4.88457
1124.67322	0.44595	4.94524	0.05773	4.88751
1125.86915	0.73716	4.9485	0.05803	4.89047
1127.06479	0.85539	4.95178	0.05833	4.89345
1128.26011	0.05239	4.95508	0.05864	4.89644
1129.45514	-1.13776	4.9584	0.05895	4.89945
1130.64985	-1.50492	4.96173	0.05926	4.90247
1131.84426	-0.72812	4.96509	0.05957	4.90552
1133.03837	0.39287	4.96847	0.05989	4.90858
1134.23217	0.51935	4.97186	0.06021	4.91165
1135.42567	-0.25067	4.97528	0.06053	4.91475
1136.61886	-1.06836	4.97871	0.06085	4.91786
1137.81175	-0.45496	4.98217	0.06118	4.92099
1139.00433	0.88299	4.98565	0.06151	4.92414
1140.1966	1.8635	4.98914	0.06184	4.9273
1141.38858	1.51494	4.99266	0.06217	4.93049
1142.58024	0.44768	4.9962	0.06251	4.93369
1143.77161	-0.76536	4.99976	0.06285	4.93691
1144.96267	-1.15003	5.00334	0.06319	4.94015
1146.15342	-0.8706	5.00695	0.06353	4.94341
1147.34387	-0.48082	5.01057	0.06388	4.94669
1148.53402	-0.1563	5.01422	0.06423	4.94999
1149.72386	0.62458	5.01789	0.06458	4.9533
1150.9134	1.62451	5.02158	0.06494	4.95664
1152.10263	1.92677	5.02529	0.0653	4.95999
1153.29156	1.21967	5.02903	0.06566	4.96337
1154.48019	0.27713	5.03279	0.06602	4.96677
1155.66851	-0.05295	5.03657	0.06639	4.97018
1156.85653	0.22763	5.04038	0.06676	4.97362
1158.04424	0.34766	5.04421	0.06713	4.97707
1159.23166	0.04911	5.04806	0.06751	4.98055
1160.41877	-0.6566	5.05194	0.06789	4.98405
1161.60557	-0.97945	5.05584	0.06827	4.98757
1162.79207	-0.7498	5.05977	0.06866	4.99111
1163.97827	0.02289	5.06372	0.06904	4.99468
1165.16417	0.21123	5.0677	0.06944	4.99826
1166.34976	-0.22229	5.0717	0.06983	5.00187
1167.53505	-0.80458	5.07572	0.07023	5.00549
1168.72004	-0.31108	5.07978	0.07063	5.00915
1169.90472	0.98405	5.08385	0.07104	5.01282
1171.0891	1.92552	5.08796	0.07144	5.01652
1172.27318	1.54235	5.09209	0.07186	5.02023
1173.45696	0.59703	5.09625	0.07227	5.02398
1174.64043	0.0876	5.10043	0.07269	5.02774
1175.8236	-0.03954	5.10464	0.07311	5.03153
1177.00647	-0.5261	5.10888	0.07354	5.03535
1178.18904	-1.17336	5.11315	0.07397	5.03918
1179.3713	-1.3519	5.11744	0.0744	5.04304
1180.55326	-0.87577	5.12177	0.07484	5.04693
1181.73492	-0.35302	5.12612	0.07528	5.05084
1182.91628	0.30358	5.1305	0.07572	5.05478
1184.09734	1.22021	5.13491	0.07617	5.05874
1185.27809	2.28338	5.13935	0.07662	5.06273
1186.45854	2.94471	5.14382	0.07708	5.06674
1187.6387	2.88519	5.14831	0.07754	5.07078
1188.81855	2.02171	5.15284	0.078	5.07484
1189.99809	1.20725	5.1574	0.07847	5.07893
1191.17734	1.34969	5.16199	0.07894	5.08305
1192.35628	2.09999	5.16661	0.07942	5.08719
1193.53493	1.96888	5.17126	0.0799	5.09137
1194.71327	0.72234	5.17595	0.08038	5.09557
1195.89131	-0.81229	5.18067	0.08087	5.09979
1197.06905	-0.95418	5.18541	0.08137	5.10405
1198.24649	0.64148	5.1902	0.08186	5.10833
1199.42363	2.97897	5.19501	0.08237	5.11264
1200.60047	4.00908	5.19986	0.08287	5.11699
1201.77701	3.58406	5.20474	0.08338	5.12136
1202.95324	2.90162	5.20966	0.0839	5.12576
1204.12918	2.9147	5.21461	0.08442	5.13019
1205.30481	3.22335	5.21959	0.08494	5.13465
1206.48015	2.93164	5.22461	0.08547	5.13914
1207.65518	2.17608	5.22967	0.08601	5.14366
1208.82992	1.87931	5.23476	0.08655	5.14821
1210.00435	2.69366	5.23989	0.08709	5.15279
1211.17848	3.68945	5.24505	0.08764	5.15741
1212.35232	4.06772	5.25026	0.0882	5.16206
1213.52585	3.79524	5.2555	0.08876	5.16674
1214.69908	3.49344	5.26077	0.08932	5.17145
1215.87202	2.70862	5.26609	0.08989	5.1762
1217.04465	1.50223	5.27144	0.09047	5.18097
1218.21698	0.61195	5.27684	0.09105	5.18579
1219.38902	1.33302	5.28227	0.09164	5.19063
1220.56075	2.7345	5.28774	0.09223	5.19551
1221.73219	3.75638	5.29326	0.09283	5.20043
1222.90332	3.68871	5.29881	0.09343	5.20538
1224.07416	3.38907	5.30441	0.09404	5.21037
1225.2447	3.34189	5.31004	0.09465	5.21539
1226.41494	3.97387	5.31572	0.09528	5.22045
1227.58487	4.34661	5.32145	0.0959	5.22554
1228.75451	3.84765	5.32721	0.09654	5.23068
1229.92385	2.7972	5.33302	0.09717	5.23585
1231.0929	1.97689	5.33888	0.09782	5.24106
1232.26164	1.28163	5.34477	0.09847	5.2463
1233.43008	0.93234	5.35072	0.09913	5.25159
1234.59823	1.15259	5.35671	0.09979	5.25691
1235.76608	1.67526	5.36274	0.10046	5.26228
1236.93363	1.9196	5.36882	0.10114	5.26768
1238.10088	2.29342	5.37495	0.10183	5.27313
1239.26783	2.75051	5.38113	0.10252	5.27861
1240.43448	2.81896	5.38735	0.10321	5.28414
1241.60084	2.43849	5.39363	0.10392	5.28971
1242.76689	2.47246	5.39995	0.10463	5.29532
1243.93265	3.04468	5.40632	0.10535	5.30097
1245.09811	3.44588	5.41275	0.10608	5.30667
1246.26327	3.09245	5.41922	0.10681	5.31241
1247.42814	2.44256	5.42575	0.10755	5.3182
1248.59271	2.20352	5.43233	0.1083	5.32403
1249.75698	2.7704	5.43896	0.10906	5.32991
1250.92095	3.3571	5.44565	0.10982	5.33583
1252.08462	3.17297	5.45239	0.11059	5.3418
1253.248	2.30658	5.45918	0.11137	5.34781
1254.41108	2.03512	5.46603	0.11216	5.35387
1255.57386	2.45254	5.47294	0.11295	5.35999
1256.73634	2.40238	5.4799	0.11376	5.36615
1257.89853	1.33534	5.48693	0.11457	5.37235
1259.06042	0.39759	5.49401	0.11539	5.37861
1260.22202	0.71665	5.50115	0.11622	5.38492
1261.38331	1.50089	5.50835	0.11706	5.39128
1262.54431	2.04688	5.51561	0.11791	5.3977
1263.70501	2.29332	5.52293	0.11877	5.40416
1264.86542	3.11284	5.53031	0.11963	5.41068
1266.02553	4.32793	5.53776	0.12051	5.41725
1267.18534	5.81019	5.54527	0.12139	5.42388
1268.34486	6.58281	5.55284	0.12229	5.43056
1269.50408	6.45411	5.56048	0.12319	5.43729
1270.663	5.84698	5.56819	0.1241	5.44408
1271.82162	5.38961	5.57596	0.12503	5.45093
1272.97995	4.87438	5.5838	0.12596	5.45784
1274.13799	4.47481	5.59171	0.1269	5.46481
1275.29573	4.92137	5.59969	0.12786	5.47183
1276.45317	5.77369	5.60774	0.12882	5.47892
1277.61032	5.96255	5.61586	0.1298	5.48606
1278.76717	5.25223	5.62405	0.13078	5.49327
1279.92372	4.66879	5.63232	0.13178	5.50054
1281.07998	4.60575	5.64066	0.13279	5.50787
1282.23594	4.76236	5.64907	0.13381	5.51527
1283.39161	4.96231	5.65757	0.13484	5.52273
1284.54698	5.13317	5.66614	0.13588	5.53025
1285.70206	5.0198	5.67478	0.13694	5.53785
1286.85684	4.27401	5.68351	0.13801	5.54551
1288.01132	3.83488	5.69232	0.13908	5.55323
1289.16551	4.32168	5.70121	0.14018	5.56103
1290.31941	5.49862	5.71018	0.14128	5.5689
1291.47301	6.02771	5.71924	0.1424	5.57684
1292.62631	6.30341	5.72838	0.14353	5.58485
1293.77932	7.07947	5.7376	0.14467	5.59293
1294.93204	8.72657	5.74692	0.14583	5.60109
1296.08446	9.80893	5.75632	0.147	5.60932
1297.23658	10.1102	5.76581	0.14818	5.61763
1298.38841	9.89726	5.77539	0.14938	5.62601
1299.53995	9.67005	5.78507	0.15059	5.63448
1300.69119	8.74534	5.79484	0.15182	5.64302
1301.84214	7.81765	5.8047	0.15306	5.65164
1302.99279	7.69747	5.81467	0.15432	5.66035
1304.14315	8.68183	5.82472	0.15559	5.66913
1305.29322	9.67895	5.83488	0.15688	5.678
1306.44299	10.48704	5.84514	0.15818	5.68696
1307.59246	10.7417	5.8555	0.1595	5.696
1308.74165	10.44279	5.86596	0.16084	5.70513
1309.89053	9.5414	5.87653	0.16219	5.71434
1311.03913	8.90349	5.88721	0.16356	5.72365
1312.18743	8.53229	5.89799	0.16494	5.73305
1313.33544	8.63354	5.90889	0.16634	5.74254
1314.48315	8.96563	5.91989	0.16777	5.75212
1315.63057	9.47496	5.93101	0.1692	5.7618
1316.77769	9.45762	5.94224	0.17066	5.77158
1317.92453	9.24818	5.95359	0.17214	5.78146
1319.07107	9.33903	5.96506	0.17363	5.79143
1320.21731	9.90243	5.97665	0.17514	5.8015
1321.36327	9.92916	5.98836	0.17668	5.81168
1322.50893	8.89835	6.00019	0.17823	5.82196
1323.65429	7.42237	6.01215	0.1798	5.83235
1324.79937	6.89798	6.02424	0.18139	5.84285
1325.94415	7.74305	6.03646	0.18301	5.85345
1327.08863	9.11763	6.04881	0.18464	5.86417
1328.23283	9.62029	6.06129	0.1863	5.87499
1329.37673	9.33733	6.07391	0.18798	5.88594
1330.52034	9.40463	6.08667	0.18968	5.89699
1331.66366	10.60785	6.09957	0.1914	5.90817
1332.80668	11.18772	6.11261	0.19315	5.91946
1333.94941	9.81681	6.1258	0.19492	5.93088
1335.09185	7.42508	6.13914	0.19671	5.94242
1336.234	6.69167	6.15262	0.19853	5.95409
1337.37586	7.80302	6.16626	0.20038	5.96588
1338.51742	8.98702	6.18005	0.20224	5.97781
1339.65869	8.81916	6.194	0.20414	5.98986
1340.79967	8.17669	6.20811	0.20606	6.00205
1341.94036	8.23039	6.22238	0.20801	6.01438
1343.08075	8.44018	6.23682	0.20998	6.02684
1344.22086	7.53041	6.25143	0.21199	6.03945
1345.36067	6.25746	6.26621	0.21402	6.05219
1346.50019	6.26701	6.28116	0.21608	6.06509
1347.63942	7.03727	6.2963	0.21817	6.07813
1348.77835	6.82274	6.31161	0.22028	6.09132
1349.917	5.71032	6.3271	0.22243	6.10467
1351.05535	4.83251	6.34279	0.22461	6.11817
1352.19341	4.5768	6.35866	0.22683	6.13183
1353.33119	5.08127	6.37472	0.22907	6.14565
1354.46867	5.9127	6.39099	0.23135	6.15964
1355.60586	5.81269	6.40745	0.23366	6.17379
1356.74275	4.22697	6.42412	0.236	6.18812
1357.87936	2.90976	6.441	0.23838	6.20261
1359.01568	2.91561	6.45809	0.2408	6.21729
1360.1517	3.88447	6.47539	0.24325	6.23214
1361.28744	4.82443	6.49291	0.24574	6.24717
1362.42288	5.66212	6.51066	0.24827	6.2624
1363.55804	5.85872	6.52864	0.25083	6.27781
1364.6929	5.52645	6.54685	0.25343	6.29341
1365.82747	4.77604	6.56529	0.25608	6.30921
1366.96176	4.22754	6.58398	0.25876	6.32521
1368.09575	4.06115	6.60291	0.26149	6.34142
1369.22945	4.54288	6.62209	0.26426	6.35783
1370.36286	5.67447	6.64153	0.26707	6.37446
1371.49598	6.76384	6.66123	0.26993	6.3913
1372.62881	6.57172	6.68119	0.27283	6.40836
1373.76136	4.61013	6.70143	0.27578	6.42565
1374.89361	3.46985	6.72194	0.27878	6.44316
1376.02557	4.58451	6.74273	0.28182	6.46091
1377.15724	6.55124	6.76381	0.28492	6.4789
1378.28862	6.88369	6.78519	0.28806	6.49713
1379.41972	6.4665	6.80686	0.29125	6.51561
1380.55052	6.31358	6.82884	0.2945	6.53434
1381.68103	6.36495	6.85113	0.29781	6.55332
1382.81126	6.09772	6.87374	0.30116	6.57258
1383.94119	5.82169	6.89667	0.30458	6.5921
1385.07084	5.53462	6.91994	0.30805	6.61189
1386.2002	5.46871	6.94354	0.31158	6.63196
1387.32926	5.83335	6.96749	0.31516	6.65232
1388.45804	6.06637	6.99179	0.31882	6.67298
1389.58653	5.45683	7.01645	0.32253	6.69393
1390.71473	4.87377	7.04149	0.32631	6.71518
1391.84265	5.20965	7.0669	0.33015	6.73674
1392.97027	6.0222	7.09269	0.33406	6.75863
1394.0976	6.1705	7.11888	0.33804	6.78084
1395.22465	5.76018	7.14547	0.34209	6.80338
1396.35141	5.2171	7.17247	0.34621	6.82626
1397.47787	4.78447	7.19989	0.35041	6.84948
1398.60405	4.38094	7.22774	0.35468	6.87306
1399.72995	4.3254	7.25604	0.35903	6.89701
1400.85555	4.74352	7.28478	0.36346	6.92132
1401.98087	5.45969	7.31398	0.36797	6.94601
1403.10589	5.68691	7.34366	0.37256	6.9711
1404.23063	5.64839	7.37382	0.37724	6.99658
1405.35508	6.20388	7.40447	0.38201	7.02246
1406.47925	7.33743	7.43563	0.38686	7.04877
1407.60312	6.95467	7.46731	0.39181	7.0755
1408.72671	4.49986	7.49951	0.39685	7.10266
1409.85001	2.67354	7.53226	0.40199	7.13028
1410.97302	4.11027	7.56557	0.40723	7.15835
1412.09575	6.78482	7.59945	0.41256	7.18689
1413.21819	7.17866	7.63392	0.41801	7.21591
1414.34034	5.04158	7.66898	0.42356	7.24542
1415.4622	3.66657	7.70466	0.42922	7.27545
1416.58377	4.71009	7.74097	0.43499	7.30598
1417.70506	7.35367	7.77793	0.44087	7.33705
1418.82606	9.24855	7.81555	0.44688	7.36867
1419.94678	9.21987	7.85385	0.45301	7.40084
1421.0672	8.00711	7.89286	0.45926	7.43359
1422.18734	7.43967	7.93258	0.46565	7.46693
1423.30719	8.02796	7.97303	0.47216	7.50088
1424.42676	8.83111	8.01425	0.47881	7.53544
1425.54604	9.41191	8.05624	0.4856	7.57064
1426.66503	9.39424	8.09903	0.49253	7.6065
1427.78374	8.50107	8.14265	0.49961	7.64303
1428.90216	7.655	8.1871	0.50685	7.68025
1430.02029	7.87261	8.23243	0.51424	7.71819
1431.13814	8.21331	8.27864	0.52179	7.75686
1432.2557	6.98566	8.32578	0.5295	7.79628
1433.37297	5.67687	8.37386	0.53739	7.83647
1434.48996	5.73641	8.42291	0.54545	7.87746
1435.60666	6.75872	8.47296	0.55369	7.91927
1436.72308	7.01176	8.52404	0.56212	7.96193
1437.83921	7.32954	8.57619	0.57074	8.00545
1438.95505	7.70007	8.62942	0.57955	8.04987
1440.07061	7.62264	8.68379	0.58857	8.09521
1441.18588	6.98402	8.73931	0.5978	8.14151
1442.30087	7.40751	8.79603	0.60725	8.18878
1443.41557	8.28551	8.85398	0.61691	8.23707
1444.52998	7.8227	8.91321	0.62681	8.2864
1445.64411	6.30946	8.97375	0.63695	8.3368
1446.75796	5.83442	9.03564	0.64733	8.38831
1447.87152	6.60373	9.09894	0.65796	8.44098
1448.98479	6.50746	9.16368	0.66886	8.49482
1450.09778	5.96881	9.22992	0.68002	8.54989
1451.21048	6.29449	9.29769	0.69147	8.60623
1452.3229	7.54769	9.36707	0.7032	8.66387
1453.43503	7.5201	9.43809	0.71522	8.72286
1454.54688	6.71446	9.51082	0.72756	8.78326
1455.65844	6.5019	9.58531	0.74022	8.84509
1456.76972	7.53881	9.66163	0.7532	8.90843
1457.88071	8.78836	9.73985	0.76653	8.97332
1458.99142	9.23508	9.82002	0.7802	9.03982
1460.10185	9.40657	9.90223	0.79425	9.10798
1461.21199	10.25182	9.98654	0.80867	9.17787
1462.32184	12.89895	10.07303	0.82348	9.24954
1463.43141	14.67079	10.16179	0.83871	9.32308
1464.5407	14.57348	10.25289	0.85435	9.39855
1465.6497	12.35843	10.34644	0.87043	9.47601
1466.75842	10.95629	10.44252	0.88696	9.55556
1467.86685	10.88456	10.54124	0.90396	9.63727
1468.975	12.87061	10.64269	0.92146	9.72123
1470.08287	14.44588	10.74698	0.93946	9.80753
1471.19045	14.42519	10.85424	0.95798	9.89625
1472.29775	13.18104	10.96457	0.97706	9.98752
1473.40476	12.58763	11.07812	0.9967	10.08142
1474.51149	12.78765	11.19501	1.01694	10.17807
1475.61794	12.98822	11.31538	1.03779	10.27759
1476.7241	13.44469	11.43938	1.05929	10.3801
1477.82998	14.27417	11.56718	1.08145	10.48573
1478.93558	15.38909	11.69893	1.10431	10.59462
1480.04089	15.66237	11.83481	1.12789	10.70692
1481.14592	15.25766	11.97501	1.15223	10.82278
1482.25067	14.57302	12.11972	1.17736	10.94236
1483.35513	14.8709	12.26916	1.20331	11.06584
1484.45931	15.9851	12.42353	1.23013	11.19341
1485.56321	17.13815	12.58308	1.25784	11.32525
1486.66682	17.27843	12.74806	1.28648	11.46157
1487.77015	16.87342	12.91871	1.31611	11.6026
1488.8732	16.10586	13.09533	1.34677	11.74856
1489.97596	15.28747	13.27821	1.3785	11.89972
1491.07845	15.25907	13.46767	1.41135	12.05632
1492.18065	16.50476	13.66404	1.44538	12.21867
1493.28256	17.56664	13.86768	1.48064	12.38704
1494.3842	17.42819	14.07898	1.5172	12.56178
1495.48555	17.54167	14.29833	1.55512	12.74322
1496.58662	19.11149	14.52618	1.59446	12.93172
1497.68741	20.96748	14.76299	1.6353	13.12769
1498.78791	21.79108	15.00926	1.67772	13.33154
1499.88813	21.80347	15.26552	1.7218	13.54372
1500.98808	21.68029	15.53233	1.76761	13.76472
1502.08773	21.25704	15.81032	1.81527	13.99505
1503.18711	20.90721	16.10014	1.86486	14.23528
1504.28621	20.72867	16.4025	1.9165	14.486
1505.38502	20.87446	16.71814	1.97029	14.74785
1506.48355	21.42373	17.04789	2.02635	15.02153
1507.5818	22.57029	17.39262	2.08483	15.30779
1508.67977	23.72284	17.75328	2.14584	15.60744
1509.77746	24.56498	18.13089	2.20956	15.92133
1510.87486	25.13039	18.52654	2.27612	16.25042
1511.97198	25.16684	18.94142	2.34572	16.5957
1513.06883	25.06136	19.37682	2.41853	16.95829
1514.16539	25.82904	19.83412	2.49475	17.33937
1515.26167	27.67825	20.31481	2.5746	17.74021
1516.35766	29.09926	20.82052	2.65831	18.16221
1517.45338	29.90807	21.35299	2.74614	18.60686
1518.54882	30.67473	21.91413	2.83835	19.07578
1519.64397	32.10731	22.50598	2.93524	19.57073
1520.73885	33.3627	23.13075	3.03714	20.09361
1521.83344	34.27564	23.79085	3.14439	20.64646
1522.92775	34.62186	24.48885	3.25736	21.23148
1524.02179	35.09901	25.22754	3.37648	21.85106
1525.11554	35.39706	26.00992	3.5022	22.50772
1526.20901	35.20969	26.83919	3.635	23.20419
1527.3022	34.57936	27.7188	3.77544	23.94337
1528.39511	34.48484	28.65239	3.92409	24.7283
1529.48774	34.5908	29.64381	4.08161	25.56221
1530.58009	34.12914	30.69711	4.24872	26.44839
1531.67216	33.69619	31.81646	4.4262	27.39026
1532.76394	34.61305	33.00613	4.61492	28.39121
1533.85545	36.66626	34.27036	4.81586	29.4545
1534.94668	38.37903	35.61327	5.03007	30.5832
1536.03763	39.35765	37.03863	5.25874	31.77988
1537.1283	39.70148	38.54962	5.5032	33.04642
1538.21869	39.69884	40.14853	5.76492	34.38361
1539.3088	39.62479	41.83624	6.04555	35.79069
1540.39863	40.27031	43.61169	6.34694	37.26475
1541.48818	41.65361	45.47114	6.67117	38.79997
1542.57745	43.60124	47.40729	7.02058	40.38671
1543.66644	45.71551	49.40822	7.39782	42.0104
1544.75515	47.54461	51.45622	7.8059	43.65032
1545.84358	48.49349	53.52663	8.24824	45.27839
1546.93173	48.99047	55.5867	8.72873	46.85797
1548.0196	49.72684	57.5949	9.25182	48.34308
1549.1072	51.23716	59.50096	9.82265	49.67831
1550.19451	53.32891	61.247	10.44711	50.79989
1551.28155	55.29715	62.77033	11.13204	51.63829
1552.36831	56.52641	64.00813	11.88538	52.12275
1553.45478	57.30158	64.90411	12.71637	52.18774
1554.54098	58.51115	65.41653	13.63588	51.78065
1555.6269	59.99013	65.52646	14.65666	50.8698
1556.71254	61.71939	65.24474	15.79383	49.45091
1557.79791	63.51557	64.61582	17.06533	47.55049
1558.88299	65.39904	63.71742	18.49264	45.22478
1559.9678	66.71805	62.65594	20.10152	42.55441
1561.05232	68.24364	61.55864	21.92316	39.63548
1562.13657	70.41901	60.56475	23.99543	36.56932
1563.22054	73.18103	59.8175	26.36468	33.45282
1564.30424	75.9	59.45895	29.08794	30.37101
1565.38765	78.96769	59.62841	32.23581	27.3926
1566.47079	82.48908	60.46473	35.89629	24.56844
1567.55364	85.77277	62.11188	40.17958	21.93231
1568.63622	88.35469	64.7275	45.2244	19.5031
1569.71853	90.68939	68.49379	51.20602	17.28777
1570.80055	93.491	73.63037	58.3461	15.28427
1571.8823	96.80204	80.40856	66.92426	13.4843
1572.96376	100.59904	89.16556	77.29	11.87556
1574.04495	105.08091	100.31485	89.87135	10.44351
1575.12587	110.61135	114.34376	105.17113	9.17263
1576.2065	117.69085	131.77878	123.73139	8.04738
1577.28686	126.18333	153.08078	146.028	7.05278
1578.36694	135.91473	178.40739	172.23267	6.17472
1579.44675	147.66404	207.16897	201.76874	5.40023
1580.52627	162.5735	237.38046	232.66296	4.7175
1581.60552	179.0537	265.10127	260.98535	4.11592
1582.68449	193.45104	284.74301	281.15701	3.58601
1583.76319	203.79706	291.03728	287.91795	3.11933
1584.8416	209.91115	281.96584	279.25739	2.70844
1585.91975	209.99032	260.09691	257.75013	2.34677
1586.99761	200.67043	230.88943	228.86089	2.02854
1588.0752	181.99735	199.76851	198.01985	1.74865
1589.15251	158.25498	170.38801	168.88537	1.50265
1590.22954	134.31857	144.49456	143.20797	1.28659
1591.3063	112.63658	122.53174	121.4347	1.09704
1592.38278	94.46464	104.2676	103.33664	0.93097
1593.45898	79.63306	89.20773	88.42203	0.7857
1594.53491	67.14436	76.81108	76.15219	0.6589
1595.61056	55.58285	66.58315	66.03465	0.54849
1596.68593	45.55136	58.10568	57.65301	0.45267
1597.76103	38.18381	51.03812	50.66831	0.36981
1598.83585	34.42192	45.10823	44.80973	0.2985
1599.9104	32.21424	40.10012	39.86265	0.23748
1600.98467	29.54133	35.84295	35.65732	0.18563
1602.05866	25.80557	32.20127	32.05928	0.14198
1603.13238	22.7128	29.06728	28.96164	0.10565
1604.20582	20.76121	26.35481	26.27897	0.07584
1605.27899	19.68086	23.99451	23.94263	0.05188
1606.35188	18.51881	21.93028	21.89713	0.03315
1607.4245	16.81759	20.11643	20.09735	0.01908
1608.49684	14.66683	18.51554	18.50634	0.0092
1609.5689	12.8109	17.09674	17.09368	0.00306
1610.64069	11.88484	15.83445	15.83419	2.6212E-4
1611.7122	11.90693	14.70734	14.70688	4.61211E-4
1612.78344	12.19202	13.69752	13.69418	0.00334
1613.8544	11.90472	12.78991	12.7813	0.00861
1614.92509	11.09447	11.97172	11.9557	0.01602
1615.9955	10.20817	11.2321	11.20676	0.02534
1617.06564	9.31315	10.56175	10.52538	0.03637
1618.1355	8.36507	9.95267	9.90376	0.04891
1619.20509	7.70939	9.39799	9.33518	0.0628
1620.2744	7.456	8.89174	8.81384	0.0779
1621.34344	7.39877	8.42874	8.33469	0.09405
1622.4122	7.27978	8.00449	7.89333	0.11115
1623.48069	6.70963	7.61501	7.48593	0.12908
1624.5489	5.83165	7.25686	7.10912	0.14774
1625.61684	5.09411	6.92696	6.75993	0.16703
1626.6845	4.9214	6.62262	6.43574	0.18688
1627.75189	4.67159	6.34145	6.13424	0.20722
1628.81901	4.31812	6.08133	5.85336	0.22797
1629.88585	3.85069	5.84036	5.59129	0.24907
1630.95241	3.90895	5.61686	5.34639	0.27047
1632.01871	4.03722	5.40932	5.1172	0.29212
1633.08473	4.16022	5.21638	4.90241	0.31397
1634.15047	3.87923	5.03683	4.70084	0.33599
1635.21594	4.10509	4.86957	4.51144	0.35813
1636.28114	4.65163	4.71361	4.33324	0.38037
1637.34606	4.86089	4.56805	4.16539	0.40266
1638.41071	3.74434	4.4321	4.0071	0.42499
1639.47508	2.39653	4.305	3.85767	0.44734
1640.53918	1.90002	4.1861	3.71644	0.46966
1641.60301	2.25065	4.07479	3.58283	0.49196
1642.66657	2.33549	3.9705	3.4563	0.51421
1643.72985	2.23118	3.87274	3.33636	0.53638
1644.79285	2.27922	3.78104	3.22256	0.55848
1645.85559	2.29135	3.69497	3.1145	0.58048
1646.91805	1.66648	3.61415	3.01178	0.60237
1647.98024	1.03163	3.53822	2.91408	0.62415
1649.04215	1.35683	3.46685	2.82106	0.64579
1650.10379	2.84045	3.39973	2.73243	0.6673
1651.16516	4.17122	3.3366	2.64792	0.68867
1652.22625	3.93567	3.27718	2.56729	0.70989
1653.28708	2.59902	3.22124	2.49029	0.73095
1654.34763	1.9013	3.16856	2.41671	0.75185
1655.4079	2.5917	3.11894	2.34635	0.77259
1656.46791	3.24641	3.07219	2.27903	0.79315
1657.52764	2.99236	3.02812	2.21458	0.81354
1658.5871	2.29595	2.98659	2.15283	0.83376
1659.64628	1.93815	2.94744	2.09364	0.8538
1660.7052	1.65788	2.91052	2.03686	0.87366
1661.76384	1.3242	2.87571	1.98238	0.89333
1662.82221	1.53449	2.84288	1.93005	0.91282
1663.8803	2.44876	2.81192	1.87978	0.93213
1664.93813	3.03499	2.78272	1.83146	0.95126
1665.99568	2.42097	2.75518	1.78498	0.9702
1667.05296	0.92334	2.72922	1.74026	0.98895
1668.10997	0	2.70473	1.69721	1.00752
1669.1667	0.27947	2.68165	1.65574	1.02591
1670.22317	1.69499	2.65989	1.61578	1.04411
1671.27936	2.6146	2.63938	1.57726	1.06213
1672.33528	2.36135	2.62006	1.54011	1.07996
1673.39093	1.23519	2.60187	1.50426	1.09761
1674.44631	0.88899	2.58473	1.46965	1.11508
1675.50141	1.47254	2.5686	1.43623	1.13237
1676.55625	2.26705	2.55343	1.40395	1.14948
1677.61081	2.42813	2.53916	1.37274	1.16642
1678.6651	2.20863	2.52575	1.34257	1.18317
1679.71912	2.26494	2.51315	1.3134	1.19975
1680.77287	2.81025	2.50133	1.28516	1.21616
1681.82635	3.25429	2.49024	1.25784	1.2324
1682.87955	2.90604	2.47985	1.23138	1.24847
1683.93249	2.00775	2.47012	1.20576	1.26437
1684.98515	1.429	2.46102	1.18093	1.2801
1686.03754	1.67844	2.45252	1.15686	1.29566
1687.08967	2.63681	2.4446	1.13353	1.31107
1688.14152	3.75728	2.43721	1.1109	1.32631
1689.1931	4.47322	2.43034	1.08895	1.34139
1690.24441	4.15693	2.42395	1.06764	1.35631
1691.29545	3.11539	2.41804	1.04696	1.37107
1692.34622	2.3373	2.41257	1.02688	1.38569
1693.39671	2.82244	2.40752	1.00738	1.40014
1694.44694	4.28923	2.40288	0.98843	1.41445
1695.4969	5.76986	2.39862	0.97001	1.42861
1696.54659	5.94908	2.39473	0.95211	1.44262
1697.596	4.68111	2.39118	0.93471	1.45648
1698.64515	3.13913	2.38797	0.91778	1.4702
1699.69403	3.07714	2.38508	0.90131	1.48377
1700.74263	4.17849	2.38249	0.88528	1.49721
1701.79097	5.05398	2.38019	0.86968	1.51051
1702.83904	4.85653	2.37816	0.85449	1.52367
1703.88683	4.5051	2.37639	0.8397	1.53669
1704.93436	4.42362	2.37488	0.82529	1.54958
1705.98162	4.45777	2.3736	0.81126	1.56234
1707.0286	4.2261	2.37255	0.79758	1.57497
1708.07532	4.13993	2.37172	0.78425	1.58747
1709.12177	4.62179	2.3711	0.77125	1.59984
1710.16795	5.80519	2.37067	0.75858	1.61209
1711.21385	6.67534	2.37044	0.74622	1.62422
1712.25949	6.28859	2.37038	0.73416	1.63622
1713.30486	5.22622	2.3705	0.7224	1.6481
1714.34997	4.72282	2.37078	0.71091	1.65986
1715.3948	4.70556	2.37121	0.69971	1.67151
1716.43936	4.51012	2.3718	0.68876	1.68303
1717.48365	4.78238	2.37253	0.67808	1.69445
1718.52768	5.63186	2.37339	0.66764	1.70575
1719.57143	5.94781	2.37439	0.65745	1.71694
1720.61492	4.69779	2.37551	0.64749	1.72802
1721.65814	2.82351	2.37675	0.63775	1.73899
1722.70108	1.93342	2.3781	0.62824	1.74985
1723.74377	2.47126	2.37955	0.61894	1.76061
1724.78618	3.47028	2.38112	0.60985	1.77127
1725.82832	3.92814	2.38277	0.60096	1.78182
1726.87019	4.19173	2.38453	0.59226	1.79227
1727.9118	4.57945	2.38637	0.58375	1.80262
1728.95314	4.94101	2.3883	0.57543	1.81286
1729.99421	5.06791	2.3903	0.56729	1.82302
1731.03501	5.09878	2.39239	0.55932	1.83307
1732.07554	4.88195	2.39455	0.55151	1.84303
1733.1158	4.23947	2.39677	0.54388	1.8529
1734.1558	3.46517	2.39907	0.5364	1.86267
1735.19553	2.85012	2.40142	0.52907	1.87235
1736.23499	2.73131	2.40384	0.5219	1.88194
1737.27418	3.08741	2.40632	0.51487	1.89144
1738.3131	4.03774	2.40885	0.50799	1.90086
1739.35176	4.70842	2.41143	0.50124	1.91018
1740.39015	4.32258	2.41406	0.49463	1.91943
1741.42827	2.13932	2.41674	0.48816	1.92858
1742.46613	0.211	2.41946	0.48181	1.93765
1743.50371	0.053	2.42222	0.47558	1.94664
1744.54103	1.99747	2.42503	0.46948	1.95555
1745.57808	3.67367	2.42787	0.46349	1.96438
1746.61486	4.37774	2.43074	0.45762	1.97312
1747.65138	3.82331	2.43365	0.45186	1.98179
1748.68763	2.92169	2.4366	0.44621	1.99038
1749.72361	2.26525	2.43957	0.44067	1.9989
1750.75933	2.38245	2.44257	0.43523	2.00734
1751.79477	2.78093	2.44559	0.42989	2.0157
1752.82996	2.78857	2.44865	0.42465	2.02399
1753.86487	2.35482	2.45172	0.41951	2.03221
1754.89952	1.80284	2.45482	0.41446	2.04036
1755.9339	1.79924	2.45794	0.40951	2.04843
1756.96801	2.5365	2.46108	0.40464	2.05644
1758.00186	3.35754	2.46423	0.39986	2.06437
1759.03544	3.35963	2.46741	0.39517	2.07224
1760.06875	2.67129	2.47059	0.39056	2.08004
1761.1018	1.80028	2.4738	0.38603	2.08777
1762.13458	1.08833	2.47701	0.38158	2.09543
1763.16709	0.8803	2.48024	0.37721	2.10303
1764.19934	1.76169	2.48348	0.37291	2.11057
1765.23132	2.5571	2.48673	0.36869	2.11804
1766.26304	1.97143	2.48999	0.36454	2.12545
1767.29449	0.2417	2.49326	0.36046	2.1328
1768.32567	-0.57986	2.49654	0.35645	2.14009
1769.35659	0.07034	2.49982	0.35251	2.14731
1770.38724	1.64706	2.50311	0.34863	2.15448
1771.41762	3.05079	2.5064	0.34482	2.16159
1772.44774	3.4739	2.5097	0.34107	2.16863
1773.47759	2.87089	2.513	0.33738	2.17562
1774.50718	2.18182	2.51631	0.33375	2.18256
1775.5365	2.12323	2.51962	0.33019	2.18943
1776.56556	2.14542	2.52293	0.32668	2.19625
1777.59435	1.49912	2.52624	0.32322	2.20302
1778.62288	0.29528	2.52955	0.31982	2.20973
1779.65114	-0.4143	2.53287	0.31648	2.21639
1780.67913	0.17501	2.53618	0.31319	2.22299
1781.70686	1.16306	2.53949	0.30995	2.22954
1782.73432	1.58692	2.5428	0.30676	2.23604
1783.76152	1.50905	2.54611	0.30362	2.24249
1784.78846	1.90217	2.54942	0.30053	2.24889
1785.81513	2.24044	2.55272	0.29749	2.25523
1786.84153	1.9766	2.55602	0.2945	2.26153
1787.86767	1.37058	2.55932	0.29155	2.26778
1788.89354	1.39968	2.56262	0.28864	2.27397
1789.91915	1.94687	2.56591	0.28578	2.28013
1790.9445	2.1647	2.56919	0.28296	2.28623
1791.96957	1.75881	2.57247	0.28019	2.29228
1792.99439	1.13956	2.57575	0.27745	2.29829
1794.01894	0.68659	2.57902	0.27476	2.30426
1795.04323	0.14752	2.58228	0.2721	2.31018
1796.06725	-0.48001	2.58554	0.26949	2.31605
1797.091	-1.1302	2.58879	0.26691	2.32188
1798.1145	-1.33414	2.59204	0.26437	2.32766
1799.13773	-0.93114	2.59527	0.26187	2.3334
1800.16069	-0.1176	2.59851	0.2594	2.3391
1801.18339	0.18945	2.60173	0.25697	2.34476
1802.20582	0.1067	2.60495	0.25457	2.35037
1803.228	0.17305	2.60816	0.25221	2.35595
1804.2499	0.53859	2.61136	0.24988	2.36148
1805.27155	0.49001	2.61455	0.24758	2.36697
1806.29293	-0.13025	2.61773	0.24532	2.37242
1807.31404	-0.73023	2.62091	0.24309	2.37783
1808.3349	-0.78837	2.62408	0.24088	2.3832
1809.35549	-0.40507	2.62724	0.23871	2.38853
1810.37581	-0.39405	2.63039	0.23657	2.39382
1811.39587	-0.65785	2.63353	0.23446	2.39908
1812.41567	-0.93637	2.63666	0.23237	2.40429
1813.4352	-1.04348	2.63979	0.23031	2.40947
1814.45448	-1.45153	2.6429	0.22829	2.41462
1815.47348	-1.61694	2.64601	0.22628	2.41972
1816.49223	-1.44213	2.6491	0.22431	2.42479
1817.51071	-1.06863	2.65219	0.22236	2.42982
1818.52893	-1.19225	2.65526	0.22044	2.43482
1819.54688	-1.56479	2.65833	0.21854	2.43979
1820.56458	-1.95247	2.66138	0.21667	2.44471
1821.582	-1.98095	2.66443	0.21482	2.44961
1822.59917	-1.93534	2.66746	0.213	2.45447
1823.61607	-1.79962	2.67049	0.2112	2.45929
1824.63271	-1.50144	2.67351	0.20942	2.46409
1825.64909	-1.20813	2.67651	0.20767	2.46885
1826.66521	-1.38512	2.67951	0.20593	2.47357
1827.68106	-1.75578	2.68249	0.20422	2.47827
1828.69665	-2.02727	2.68546	0.20253	2.48293
1829.71198	-2.39843	2.68843	0.20087	2.48756
1830.72704	-2.79474	2.69138	0.19922	2.49216
1831.74184	-2.24235	2.69432	0.1976	2.49673
1832.75639	-1.03061	2.69726	0.19599	2.50127
1833.77066	-0.23528	2.70018	0.1944	2.50577
1834.78468	-0.4212	2.70309	0.19284	2.51025
1835.79843	-0.82641	2.70599	0.19129	2.5147
1836.81192	-1.47817	2.70888	0.18976	2.51911
1837.82515	-2.16973	2.71176	0.18825	2.5235
1838.83812	-2.8777	2.71462	0.18676	2.52786
1839.85083	-2.91727	2.71748	0.18529	2.53219
1840.86327	-2.40537	2.72033	0.18384	2.53649
1841.87545	-1.5788	2.72316	0.1824	2.54076
1842.88737	-1.89278	2.72599	0.18098	2.54501
1843.89903	-3.22831	2.7288	0.17957	2.54923
1844.91043	-4.32324	2.7316	0.17819	2.55342
1845.92156	-4.02751	2.7344	0.17682	2.55758
1846.93244	-3.4435	2.73718	0.17546	2.56172
1847.94305	-3.27902	2.73995	0.17412	2.56583
1848.9534	-3.32114	2.74271	0.1728	2.56991
1849.96349	-3.10967	2.74546	0.17149	2.57397
1850.97332	-3.20476	2.7482	0.1702	2.578
1851.98289	-3.37135	2.75093	0.16892	2.582
1852.99219	-3.39201	2.75364	0.16766	2.58598
1854.00124	-3.18103	2.75635	0.16641	2.58994
1855.01002	-3.49013	2.75905	0.16518	2.59387
1856.01855	-3.68651	2.76173	0.16396	2.59778
1857.02681	-3.61686	2.7644	0.16275	2.60166
1858.03481	-3.47129	2.76707	0.16156	2.60551
1859.04255	-3.8671	2.76972	0.16038	2.60935
1860.05003	-3.86111	2.77236	0.15921	2.61316
1861.05725	-3.106	2.775	0.15806	2.61694
1862.06421	-2.73433	2.77762	0.15691	2.6207
1863.07091	-3.71391	2.78023	0.15579	2.62444
1864.07734	-4.98173	2.78283	0.15467	2.62816
1865.08352	-5.04736	2.78542	0.15357	2.63185
1866.08944	-4.39564	2.788	0.15248	2.63552
1867.09509	-3.88266	2.79057	0.1514	2.63917
1868.10049	-3.60923	2.79312	0.15033	2.6428
1869.10563	-3.27602	2.79567	0.14927	2.6464
1870.1105	-3.0036	2.79821	0.14823	2.64998
1871.11512	-2.86307	2.80074	0.14719	2.65354
1872.11947	-2.80685	2.80325	0.14617	2.65708
1873.12357	-3.07318	2.80576	0.14516	2.6606
1874.1274	-3.42575	2.80826	0.14416	2.6641
1875.13098	-3.72732	2.81074	0.14317	2.66758
1876.1343	-3.69807	2.81322	0.14219	2.67103
1877.13735	-3.2047	2.81568	0.14122	2.67447
1878.14015	-2.20753	2.81814	0.14026	2.67788
1879.14269	-1.52744	2.82059	0.13931	2.68128
1880.14496	-2.16627	2.82302	0.13837	2.68465
1881.14698	-3.7882	2.82545	0.13744	2.68801
1882.14874	-5.19216	2.82786	0.13652	2.69135
1883.15024	-5.24529	2.83027	0.1356	2.69466
1884.15148	-4.37641	2.83266	0.1347	2.69796
1885.15246	-3.37782	2.83505	0.13381	2.70124
1886.15318	-2.89398	2.83742	0.13293	2.7045
1887.15364	-3.0159	2.83979	0.13205	2.70774
1888.15385	-3.70176	2.84215	0.13119	2.71096
1889.15379	-3.92928	2.84449	0.13033	2.71417
1890.15347	-2.75484	2.84683	0.12948	2.71735
1891.1529	-1.20487	2.84916	0.12864	2.72052
1892.15207	-1.05217	2.85148	0.12781	2.72367
1893.15097	-2.07204	2.85379	0.12699	2.7268
1894.14962	-2.78834	2.85608	0.12617	2.72991
1895.14802	-3.23279	2.85837	0.12536	2.73301
1896.14615	-3.93144	2.86065	0.12456	2.73609
1897.14402	-4.31982	2.86292	0.12377	2.73915
1898.14164	-3.66094	2.86518	0.12299	2.7422
1899.13899	-2.7758	2.86744	0.12221	2.74522
1900.13609	-2.28641	2.86968	0.12144	2.74824
1901.13293	-1.9393	2.87191	0.12068	2.75123
1902.12951	-1.29238	2.87414	0.11993	2.75421
1903.12583	-0.99536	2.87635	0.11918	2.75717
1904.1219	-1.02232	2.87856	0.11844	2.76011
1905.11771	-0.95907	2.88075	0.11771	2.76304
1906.11326	-0.20175	2.88294	0.11698	2.76596
1907.10855	0.72066	2.88512	0.11627	2.76885
1908.10358	1.51366	2.88729	0.11555	2.77174
1909.09835	1.84083	2.88945	0.11485	2.7746
1910.09287	2.1123	2.8916	0.11415	2.77745
1911.08713	2.43911	2.89375	0.11346	2.78029
1912.08113	2.70221	2.89588	0.11277	2.78311
1913.07488	2.62934	2.89801	0.11209	2.78591
1914.06836	2.31304	2.90012	0.11142	2.7887
1915.06159	1.93528	2.90223	0.11075	2.79148
1916.05456	1.40824	2.90433	0.11009	2.79424
1917.04728	1.38144	2.90642	0.10944	2.79698
1918.03973	2.13108	2.9085	0.10879	2.79971
1919.03193	3.01354	2.91058	0.10815	2.80243
1920.02387	3.04343	2.91264	0.10751	2.80513
1921.01556	2.45769	2.9147	0.10688	2.80782
1922.00699	2.12522	2.91675	0.10625	2.81049
1922.99816	2.48024	2.91879	0.10564	2.81315
1923.98907	3.6379	2.92082	0.10502	2.8158
1924.97973	4.4118	2.92284	0.10441	2.81843
1925.97012	3.7947	2.92486	0.10381	2.82105
1926.96027	2.03274	2.92687	0.10321	2.82366
1927.95015	0.98242	2.92887	0.10262	2.82625
1928.93978	1.13396	2.93086	0.10203	2.82883
1929.92915	1.88652	2.93284	0.10145	2.83139
1930.91827	2.53629	2.93482	0.10087	2.83394
1931.90713	3.20348	2.93678	0.1003	2.83648
1932.89573	3.52211	2.93874	0.09973	2.83901
1933.88408	3.00118	2.94069	0.09917	2.84152
1934.87217	1.45742	2.94264	0.09861	2.84402
1935.86	0.08701	2.94457	0.09806	2.84651
1936.84758	-0.33245	2.9465	0.09751	2.84898
1937.8349	0.37324	2.94842	0.09697	2.85145
1938.82196	1.25481	2.95033	0.09643	2.8539
1939.80877	1.95079	2.95224	0.0959	2.85634
1940.79532	1.99566	2.95413	0.09537	2.85876
1941.78162	1.69197	2.95602	0.09485	2.86118
1942.76766	1.14036	2.9579	0.09433	2.86358
1943.75344	0.96571	2.95978	0.09381	2.86597
1944.73897	1.21831	2.96165	0.0933	2.86835
1945.72424	1.56701	2.9635	0.09279	2.87071
1946.70926	0.78093	2.96536	0.09229	2.87307
1947.69402	-0.70877	2.9672	0.09179	2.87541
1948.67853	-1.54821	2.96904	0.0913	2.87774
1949.66278	-0.80261	2.97087	0.09081	2.88006
1950.64677	0.03218	2.97269	0.09032	2.88237
1951.63051	-0.22772	2.97451	0.08984	2.88467
1952.614	-1.34068	2.97631	0.08936	2.88695
1953.59722	-1.76728	2.97812	0.08889	2.88923
1954.5802	-1.48204	2.97991	0.08842	2.89149
1955.56291	-1.59707	2.9817	0.08795	2.89375
1956.54538	-2.56778	2.98348	0.08749	2.89599
1957.52759	-3.21633	2.98525	0.08703	2.89822
1958.50954	-3.06688	2.98702	0.08657	2.90044
1959.49123	-2.43242	2.98877	0.08612	2.90265
1960.47268	-1.93665	2.99053	0.08567	2.90485
1961.45387	-1.75922	2.99227	0.08523	2.90704
1962.4348	-2.34899	2.99401	0.08479	2.90922
1963.41548	-3.19307	2.99574	0.08435	2.91139
1964.3959	-3.78729	2.99747	0.08392	2.91355
1965.37607	-3.80258	2.99918	0.08349	2.9157
1966.35598	-3.60558	3.0009	0.08306	2.91784
1967.33564	-3.5184	3.0026	0.08264	2.91997
1968.31505	-4.04343	3.0043	0.08222	2.92208
1969.2942	-4.82208	3.00599	0.0818	2.92419
1970.27309	-5.27239	3.00768	0.08139	2.92629
1971.25173	-4.86311	3.00935	0.08097	2.92838
1972.23012	-4.3328	3.01103	0.08057	2.93046
1973.20826	-4.30727	3.01269	0.08016	2.93253
1974.18613	-5.21701	3.01435	0.07976	2.93459
1975.16376	-5.91094	3.016	0.07937	2.93664
1976.14113	-5.61238	3.01765	0.07897	2.93868
1977.11825	-4.79705	3.01929	0.07858	2.94071
1978.09511	-4.94639	3.02092	0.07819	2.94273
1979.07172	-6.06978	3.02255	0.0778	2.94475
1980.04807	-6.28764	3.02417	0.07742	2.94675
1981.02418	-5.72562	3.02579	0.07704	2.94875
1982.00002	-5.49862	3.0274	0.07666	2.95073
1982.97562	-6.31664	3.029	0.07629	2.95271
1983.95096	-6.25852	3.0306	0.07592	2.95468
1984.92604	-6.06595	3.03219	0.07555	2.95664
1985.90088	-6.57055	3.03377	0.07519	2.95859
1986.87546	-7.76221	3.03535	0.07482	2.96053
1987.84978	-7.87383	3.03692	0.07446	2.96246
1988.82386	-7.0903	3.03849	0.0741	2.96439
1989.79768	-6.21193	3.04005	0.07375	2.9663
1990.77124	-5.59228	3.04161	0.0734	2.96821
1991.74456	-5.6593	3.04316	0.07305	2.97011
1992.71762	-6.09271	3.0447	0.0727	2.972
1993.69043	-6.56374	3.04624	0.07236	2.97388
1994.66298	-6.47397	3.04777	0.07201	2.97575
1995.63528	-6.67483	3.04929	0.07167	2.97762
1996.60733	-6.9968	3.05081	0.07134	2.97948
1997.57913	-7.55581	3.05233	0.071	2.98133
1998.55067	-7.61359	3.05384	0.07067	2.98317
1999.52196	-7.5249	3.05534	0.07034	2.985
2000.493	-7.08481	3.05684	0.07001	2.98683
2001.46378	-7.19402	3.05833	0.06969	2.98864
2002.43431	-7.25067	3.05982	0.06937	2.99045
2003.40459	-7.42365	3.0613	0.06905	2.99225
2004.37462	-7.47166	3.06278	0.06873	2.99405
2005.3444	-8.08594	3.06425	0.06841	2.99583
2006.31392	-8.51466	3.06571	0.0681	2.99761
2007.28319	-8.59633	3.06717	0.06779	2.99938
2008.25221	-8.32886	3.06862	0.06748	3.00114
2009.22097	-8.03445	3.07007	0.06717	3.0029
2010.18949	-7.89753	3.07152	0.06687	3.00465
2011.15775	-8.09316	3.07295	0.06657	3.00639
2012.12576	-8.44962	3.07439	0.06626	3.00812
2013.09352	-8.39999	3.07581	0.06597	3.00985
2014.06102	-8.68655	3.07724	0.06567	3.01157
2015.02828	-9.66676	3.07865	0.06538	3.01328
2015.99528	-10.2525	3.08007	0.06508	3.01498
2016.96203	-9.10879	3.08147	0.06479	3.01668
2017.92853	-7.67084	3.08288	0.06451	3.01837
2018.89477	-7.8511	3.08427	0.06422	3.02005
2019.86077	-9.24118	3.08566	0.06394	3.02173
2020.82651	-9.70826	3.08705	0.06365	3.0234
2021.79201	-9.10931	3.08843	0.06337	3.02506
2022.75725	-8.6033	3.08981	0.0631	3.02671
2023.72224	-8.32926	3.09118	0.06282	3.02836
2024.68698	-7.96488	3.09255	0.06254	3.03
2025.65146	-8.40114	3.09391	0.06227	3.03164
2026.6157	-9.96722	3.09527	0.062	3.03327
2027.57968	-10.72108	3.09662	0.06173	3.03489
2028.54342	-9.87242	3.09797	0.06146	3.0365
2029.5069	-8.70548	3.09931	0.0612	3.03811
2030.47013	-8.69994	3.10065	0.06094	3.03971
2031.43311	-9.53099	3.10198	0.06067	3.04131
2032.39584	-10.84473	3.10331	0.06041	3.04289
2033.35832	-12.09322	3.10463	0.06016	3.04448
2034.32055	-12.40117	3.10595	0.0599	3.04605
2035.28253	-11.38466	3.10727	0.05964	3.04762
2036.24426	-10.02725	3.10858	0.05939	3.04918
2037.20573	-9.59175	3.10988	0.05914	3.05074
2038.16696	-10.09634	3.11118	0.05889	3.05229
2039.12794	-10.62959	3.11248	0.05864	3.05384
2040.08866	-10.67481	3.11377	0.0584	3.05537
2041.04914	-10.53882	3.11506	0.05815	3.0569
2042.00936	-10.72788	3.11634	0.05791	3.05843
2042.96933	-11.28205	3.11762	0.05766	3.05995
2043.92906	-11.46455	3.11889	0.05742	3.06146
2044.88853	-10.55412	3.12016	0.05719	3.06297
2045.84776	-9.11425	3.12142	0.05695	3.06447
2046.80673	-8.61445	3.12268	0.05671	3.06597
2047.76545	-9.35775	3.12394	0.05648	3.06746
2048.72393	-10.15944	3.12519	0.05625	3.06894
2049.68215	-10.41372	3.12644	0.05602	3.07042
2050.64013	-10.34908	3.12768	0.05579	3.07189
2051.59785	-10.16342	3.12892	0.05556	3.07336
2052.55532	-9.65706	3.13015	0.05533	3.07482
2053.51255	-9.40073	3.13138	0.05511	3.07628
2054.46952	-9.79184	3.13261	0.05488	3.07772
2055.42625	-10.38511	3.13383	0.05466	3.07917
2056.38273	-10.52938	3.13505	0.05444	3.08061
2057.33895	-10.39866	3.13626	0.05422	3.08204
2058.29493	-10.06679	3.13747	0.054	3.08347
2059.25066	-9.47913	3.13867	0.05378	3.08489
2060.20614	-8.98631	3.13987	0.05357	3.08631
2061.16137	-9.64172	3.14107	0.05336	3.08772
2062.11635	-10.66949	3.14226	0.05314	3.08912
2063.07108	-11.07272	3.14345	0.05293	3.09052
2064.02556	-10.03174	3.14464	0.05272	3.09192
2064.97979	-9.18721	3.14582	0.05251	3.09331
2065.93378	-9.10059	3.14699	0.0523	3.09469
2066.88751	-10.40052	3.14817	0.0521	3.09607
2067.841	-11.55497	3.14934	0.05189	3.09744
2068.79424	-11.96341	3.1505	0.05169	3.09881
2069.74722	-11.01554	3.15166	0.05149	3.10017
2070.69996	-9.90392	3.15282	0.05129	3.10153
2071.65246	-9.4312	3.15397	0.05109	3.10289
2072.6047	-10.02559	3.15512	0.05089	3.10423
2073.55669	-11.17038	3.15627	0.05069	3.10558
2074.50844	-12.01733	3.15741	0.05049	3.10691
2075.45994	-12.27564	3.15855	0.0503	3.10825
2076.41119	-12.12337	3.15968	0.0501	3.10957
2077.36219	-11.98498	3.16081	0.04991	3.1109
2078.31294	-11.55432	3.16194	0.04972	3.11222
2079.26344	-10.77562	3.16306	0.04953	3.11353
2080.2137	-10.32785	3.16418	0.04934	3.11484
2081.16371	-10.95813	3.16529	0.04915	3.11614
2082.11347	-12.19119	3.1664	0.04896	3.11744
2083.06298	-12.89739	3.16751	0.04878	3.11873
2084.01224	-12.62215	3.16862	0.04859	3.12002
2084.96126	-11.93923	3.16972	0.04841	3.12131
2085.91003	-11.54405	3.17081	0.04823	3.12259
2086.85855	-11.656	3.17191	0.04805	3.12386
2087.80682	-11.96867	3.173	0.04786	3.12513
2088.75484	-12.28675	3.17408	0.04769	3.1264
2089.70262	-12.61698	3.17517	0.04751	3.12766
2090.65015	-12.98942	3.17625	0.04733	3.12892
2091.59743	-13.02227	3.17732	0.04715	3.13017
2092.54447	-12.63188	3.17839	0.04698	3.13142
2093.49125	-11.86522	3.17946	0.0468	3.13266
2094.43779	-11.16561	3.18053	0.04663	3.1339
2095.38409	-10.50711	3.18159	0.04646	3.13513
2096.33013	-10.6337	3.18265	0.04629	3.13636
2097.27593	-11.48244	3.1837	0.04612	3.13759
2098.22148	-12.43945	3.18476	0.04595	3.13881
2099.16678	-12.2014	3.1858	0.04578	3.14003
2100.11184	-11.66288	3.18685	0.04561	3.14124
2101.05665	-11.06358	3.18789	0.04545	3.14245
2102.00121	-11.22429	3.18893	0.04528	3.14365
2102.94553	-12.25218	3.18996	0.04512	3.14485
2103.8896	-14.83805	3.191	0.04495	3.14604
2104.83342	-15.96278	3.19202	0.04479	3.14724
2105.77699	-14.6896	3.19305	0.04463	3.14842
2106.72032	-12.06377	3.19407	0.04447	3.14961
2107.66341	-11.1174	3.19509	0.04431	3.15078
2108.60624	-11.55367	3.19611	0.04415	3.15196
2109.54883	-12.46305	3.19712	0.04399	3.15313
2110.49117	-12.42935	3.19813	0.04383	3.15429
2111.43327	-11.42567	3.19913	0.04368	3.15546
2112.37512	-10.762	3.20014	0.04352	3.15661
2113.31672	-11.32331	3.20113	0.04337	3.15777
2114.25808	-12.62421	3.20213	0.04321	3.15892
2115.19919	-13.21121	3.20312	0.04306	3.16006
2116.14005	-13.22348	3.20411	0.04291	3.16121
2117.08067	-12.6155	3.2051	0.04276	3.16235
2118.02105	-12.0057	3.20608	0.04261	3.16348
2118.96117	-11.69356	3.20707	0.04246	3.16461
2119.90105	-12.46875	3.20804	0.04231	3.16574
2120.84069	-13.60117	3.20902	0.04216	3.16686
2121.78008	-13.81249	3.20999	0.04201	3.16798
2122.71922	-12.60639	3.21096	0.04187	3.16909
2123.65812	-11.56752	3.21192	0.04172	3.1702
2124.59677	-12.32689	3.21289	0.04158	3.17131
2125.53518	-13.6984	3.21385	0.04143	3.17241
2126.47334	-13.76357	3.2148	0.04129	3.17351
2127.41125	-12.37611	3.21576	0.04115	3.17461
2128.34892	-11.46254	3.21671	0.04101	3.1757
2129.28635	-11.57722	3.21766	0.04086	3.17679
2130.22352	-12.04816	3.2186	0.04072	3.17788
2131.16046	-12.13443	3.21954	0.04059	3.17896
2132.09715	-11.83236	3.22048	0.04045	3.18004
2133.03359	-11.40316	3.22142	0.04031	3.18111
2133.96979	-10.96315	3.22235	0.04017	3.18218
2134.90574	-10.91	3.22328	0.04004	3.18325
2135.84145	-11.59763	3.22421	0.0399	3.18431
2136.77691	-12.83243	3.22514	0.03977	3.18537
2137.71213	-13.95776	3.22606	0.03963	3.18643
2138.6471	-14.62808	3.22698	0.0395	3.18748
2139.58183	-15.34372	3.22789	0.03937	3.18853
2140.51631	-15.36186	3.22881	0.03923	3.18957
2141.45055	-14.17369	3.22972	0.0391	3.19062
2142.38454	-12.44588	3.23063	0.03897	3.19166
2143.31829	-12.32725	3.23153	0.03884	3.19269
2144.2518	-13.58034	3.23244	0.03871	3.19372
2145.18506	-14.52358	3.23334	0.03858	3.19475
2146.11807	-13.86116	3.23423	0.03846	3.19578
2147.05084	-12.4504	3.23513	0.03833	3.1968
2147.98337	-11.76689	3.23602	0.0382	3.19782
2148.91565	-12.7042	3.23691	0.03808	3.19883
2149.84769	-14.24721	3.2378	0.03795	3.19985
2150.77948	-14.84074	3.23868	0.03783	3.20085
2151.71103	-14.13444	3.23956	0.0377	3.20186
2152.64234	-13.38871	3.24044	0.03758	3.20286
2153.5734	-12.96129	3.24132	0.03746	3.20386
2154.50422	-12.49569	3.24219	0.03733	3.20486
2155.43479	-11.93891	3.24306	0.03721	3.20585
2156.36512	-12.14071	3.24393	0.03709	3.20684
2157.2952	-13.01533	3.2448	0.03697	3.20782
2158.22505	-13.44528	3.24566	0.03685	3.20881
2159.15464	-13.03719	3.24652	0.03673	3.20979
2160.084	-12.83659	3.24738	0.03661	3.21076
2161.01311	-13.82816	3.24823	0.0365	3.21174
2161.94198	-14.81697	3.24909	0.03638	3.21271
2162.8706	-14.60594	3.24994	0.03626	3.21368
2163.79898	-13.31013	3.25079	0.03615	3.21464
2164.72712	-12.54411	3.25163	0.03603	3.2156
2165.65501	-12.85202	3.25248	0.03592	3.21656
2166.58266	-13.72599	3.25332	0.0358	3.21751
2167.51007	-14.12404	3.25416	0.03569	3.21847
2168.43723	-13.45817	3.25499	0.03558	3.21941
2169.36415	-12.91023	3.25582	0.03546	3.22036
2170.29083	-13.7655	3.25666	0.03535	3.2213
2171.21726	-16.35633	3.25748	0.03524	3.22224
2172.14345	-17.60609	3.25831	0.03513	3.22318
2173.0694	-16.52581	3.25914	0.03502	3.22412
2173.9951	-14.12367	3.25996	0.03491	3.22505
2174.92056	-13.33525	3.26078	0.0348	3.22598
2175.84578	-13.8608	3.26159	0.03469	3.2269
2176.77076	-14.93441	3.26241	0.03458	3.22782
2177.69549	-15.27148	3.26322	0.03448	3.22874
2178.61998	-14.98831	3.26403	0.03437	3.22966
2179.54423	-14.2037	3.26484	0.03426	3.23057
2180.46824	-13.58383	3.26564	0.03416	3.23149
2181.392	-13.54214	3.26645	0.03405	3.23239
2182.31552	-14.14425	3.26725	0.03395	3.2333
2183.2388	-14.41306	3.26804	0.03384	3.2342
2184.16183	-13.68135	3.26884	0.03374	3.2351
2185.08463	-12.70492	3.26963	0.03363	3.236
2186.00718	-12.78156	3.27043	0.03353	3.23689
2186.92949	-13.47635	3.27122	0.03343	3.23779
2187.85156	-13.72582	3.272	0.03333	3.23868
2188.77338	-13.43048	3.27279	0.03323	3.23956
2189.69496	-13.53741	3.27357	0.03312	3.24045
2190.6163	-14.03672	3.27435	0.03302	3.24133
2191.5374	-14.38623	3.27513	0.03292	3.24221
2192.45826	-14.05212	3.27591	0.03282	3.24308
2193.37887	-13.34886	3.27668	0.03273	3.24395
2194.29925	-12.51742	3.27745	0.03263	3.24482
2195.21938	-11.98179	3.27822	0.03253	3.24569
2196.13927	-12.19817	3.27899	0.03243	3.24656
2197.05891	-13.0567	3.27975	0.03233	3.24742
2197.97832	-13.78499	3.28052	0.03224	3.24828
2198.89748	-14.00719	3.28128	0.03214	3.24914
2199.81641	-14.45277	3.28204	0.03205	3.24999
2200.73509	-14.83924	3.28279	0.03195	3.25084
2201.65353	-14.57426	3.28355	0.03185	3.25169
2202.57173	-13.8503	3.2843	0.03176	3.25254
2203.48969	-13.75965	3.28505	0.03167	3.25339
2204.4074	-14.20863	3.2858	0.03157	3.25423
2205.32488	-14.63267	3.28655	0.03148	3.25507
2206.24211	-14.65635	3.28729	0.03139	3.2559
2207.1591	-14.22061	3.28803	0.03129	3.25674
2208.07586	-13.84361	3.28877	0.0312	3.25757
2208.99237	-13.8107	3.28951	0.03111	3.2584
2209.90864	-14.05805	3.29025	0.03102	3.25923
2210.82467	-13.95283	3.29098	0.03093	3.26005
2211.74045	-14.0212	3.29171	0.03084	3.26087
2212.656	-14.1815	3.29244	0.03075	3.26169
2213.57131	-14.36278	3.29317	0.03066	3.26251
2214.48637	-13.83322	3.2939	0.03057	3.26333
2215.4012	-13.29492	3.29462	0.03048	3.26414
2216.31578	-13.52415	3.29535	0.0304	3.26495
2217.23013	-14.98344	3.29607	0.03031	3.26576
2218.14423	-16.30876	3.29678	0.03022	3.26656
2219.05809	-16.52743	3.2975	0.03013	3.26737
2219.97171	-15.73124	3.29822	0.03005	3.26817
2220.8851	-14.66097	3.29893	0.02996	3.26897
2221.79824	-13.7056	3.29964	0.02988	3.26976
2222.71114	-13.51943	3.30035	0.02979	3.27056
2223.6238	-14.42637	3.30105	0.02971	3.27135
2224.53622	-15.62934	3.30176	0.02962	3.27214
2225.4484	-15.83507	3.30246	0.02954	3.27293
2226.36034	-15.17128	3.30316	0.02945	3.27371
2227.27205	-14.85392	3.30386	0.02937	3.27449
2228.18351	-15.3772	3.30456	0.02929	3.27527
2229.09473	-16.01816	3.30526	0.0292	3.27605
2230.00571	-16.20667	3.30595	0.02912	3.27683
2230.91645	-15.88051	3.30664	0.02904	3.2776
2231.82695	-14.99867	3.30733	0.02896	3.27837
2232.73721	-13.95797	3.30802	0.02888	3.27914
2233.64724	-14.00002	3.30871	0.0288	3.27991
2234.55702	-15.6362	3.30939	0.02872	3.28067
2235.46656	-17.41861	3.31007	0.02864	3.28144
2236.37587	-17.31849	3.31075	0.02856	3.2822
2237.28493	-15.54121	3.31143	0.02848	3.28296
2238.19376	-14.08323	3.31211	0.0284	3.28371
2239.10234	-14.3563	3.31279	0.02832	3.28447
2240.01069	-15.53124	3.31346	0.02824	3.28522
2240.91879	-16.09253	3.31413	0.02816	3.28597
2241.82666	-15.42126	3.3148	0.02809	3.28672
2242.73429	-14.66886	3.31547	0.02801	3.28746
2243.64168	-14.75447	3.31614	0.02793	3.28821
2244.54883	-15.28262	3.3168	0.02785	3.28895
2245.45574	-15.20129	3.31747	0.02778	3.28969
2246.36241	-14.64809	3.31813	0.0277	3.29043
2247.26885	-14.19141	3.31879	0.02763	3.29116
2248.17504	-14.21592	3.31945	0.02755	3.29189
2249.081	-14.8925	3.3201	0.02748	3.29263
2249.98672	-16.10927	3.32076	0.0274	3.29335
2250.89219	-17.01692	3.32141	0.02733	3.29408
2251.79743	-17.11422	3.32206	0.02725	3.29481
2252.70243	-16.75233	3.32271	0.02718	3.29553
2253.6072	-16.59276	3.32336	0.02711	3.29625
2254.51172	-16.45492	3.324	0.02703	3.29697
2255.41601	-16.10892	3.32465	0.02696	3.29769
2256.32005	-15.66113	3.32529	0.02689	3.2984
2257.22386	-15.83746	3.32593	0.02682	3.29912
2258.12743	-16.79625	3.32657	0.02674	3.29983
2259.03076	-18.08692	3.32721	0.02667	3.30054
2259.93386	-18.67654	3.32785	0.0266	3.30125
2260.83671	-18.06106	3.32848	0.02653	3.30195
2261.73933	-16.90375	3.32911	0.02646	3.30265
2262.64171	-16.44959	3.32975	0.02639	3.30336
2263.54385	-17.03693	3.33038	0.02632	3.30406
2264.44576	-17.74214	3.331	0.02625	3.30475
2265.34742	-17.92717	3.33163	0.02618	3.30545
2266.24885	-17.59894	3.33226	0.02611	3.30614
2267.15004	-16.96603	3.33288	0.02604	3.30684
2268.05099	-16.36129	3.3335	0.02597	3.30753
2268.95171	-16.17419	3.33412	0.02591	3.30822
2269.85218	-16.60139	3.33474	0.02584	3.3089
2270.75242	-17.16346	3.33536	0.02577	3.30959
2271.65242	-17.7385	3.33597	0.0257	3.31027
2272.55219	-17.81952	3.33659	0.02564	3.31095
2273.45172	-17.24506	3.3372	0.02557	3.31163
2274.351	-16.35483	3.33781	0.0255	3.31231
2275.25006	-16.37407	3.33842	0.02544	3.31298
2276.14887	-17.05276	3.33903	0.02537	3.31366
2277.04745	-17.38161	3.33964	0.0253	3.31433
2277.94579	-16.98965	3.34024	0.02524	3.315
2278.84389	-16.58726	3.34084	0.02517	3.31567
2279.74176	-16.42498	3.34145	0.02511	3.31634
2280.63938	-16.39816	3.34205	0.02504	3.317
2281.53678	-16.79602	3.34264	0.02498	3.31766
2282.43393	-17.43537	3.34324	0.02492	3.31833
2283.33085	-17.79356	3.34384	0.02485	3.31899
2284.22753	-17.58316	3.34443	0.02479	3.31964
2285.12397	-17.33472	3.34503	0.02473	3.3203
2286.02018	-17.08926	3.34562	0.02466	3.32095
2286.91615	-16.58775	3.34621	0.0246	3.32161
2287.81188	-16.16616	3.3468	0.02454	3.32226
2288.70738	-16.24302	3.34738	0.02447	3.32291
2289.60264	-16.70099	3.34797	0.02441	3.32356
2290.49766	-17.08188	3.34855	0.02435	3.3242
2291.39245	-17.67623	3.34914	0.02429	3.32485
2292.287	-18.2952	3.34972	0.02423	3.32549
2293.18132	-18.30134	3.3503	0.02417	3.32613
2294.07539	-17.6732	3.35088	0.02411	3.32677
2294.96924	-17.23503	3.35145	0.02405	3.32741
2295.86284	-17.28534	3.35203	0.02399	3.32804
2296.75621	-17.09129	3.3526	0.02393	3.32868
2297.64934	-16.44428	3.35318	0.02387	3.32931
2298.54224	-15.52894	3.35375	0.02381	3.32994
2299.4349	-14.86922	3.35432	0.02375	3.33057
2300.32733	-14.72018	3.35489	0.02369	3.3312
2301.21951	-15.40249	3.35545	0.02363	3.33182
2302.11147	-16.63427	3.35602	0.02357	3.33245
2303.00318	-17.75821	3.35658	0.02351	3.33307
2303.89467	-18.15639	3.35715	0.02345	3.33369
2304.78591	-17.70173	3.35771	0.0234	3.33431
2305.67692	-17.09739	3.35827	0.02334	3.33493
2306.56769	-16.71194	3.35883	0.02328	3.33555
2307.45823	-16.52169	3.35939	0.02322	3.33616
2308.34854	-16.56101	3.35994	0.02317	3.33678
2309.2386	-17.25359	3.3605	0.02311	3.33739
2310.12843	-18.0278	3.36105	0.02305	3.338
2311.01803	-17.86904	3.3616	0.023	3.33861
2311.90739	-17.07587	3.36216	0.02294	3.33922
2312.79652	-16.68159	3.36271	0.02288	3.33982
2313.68541	-17.2981	3.36325	0.02283	3.34043
2314.57406	-18.20249	3.3638	0.02277	3.34103
2315.46248	-18.5349	3.36435	0.02272	3.34163
2316.35067	-17.72123	3.36489	0.02266	3.34223
2317.23862	-16.77268	3.36543	0.02261	3.34283
2318.12633	-16.51785	3.36598	0.02255	3.34342
2319.01381	-16.54823	3.36652	0.0225	3.34402
2319.90105	-16.27189	3.36706	0.02244	3.34461
2320.78806	-16.36169	3.3676	0.02239	3.3452
2321.67484	-17.33855	3.36813	0.02234	3.3458
2322.56138	-18.20056	3.36867	0.02228	3.34638
2323.44768	-17.95795	3.3692	0.02223	3.34697
2324.33375	-16.91125	3.36974	0.02218	3.34756
2325.21959	-16.33911	3.37027	0.02212	3.34814
2326.10519	-16.81936	3.3708	0.02207	3.34873
2326.99056	-17.6312	3.37133	0.02202	3.34931
2327.87569	-17.7487	3.37186	0.02197	3.34989
2328.76059	-17.33814	3.37238	0.02191	3.35047
2329.64525	-17.05886	3.37291	0.02186	3.35105
2330.52968	-16.91647	3.37343	0.02181	3.35162
2331.41387	-16.66332	3.37396	0.02176	3.3522
2332.29783	-16.71664	3.37448	0.02171	3.35277
2333.18156	-17.18568	3.375	0.02166	3.35334
2334.06505	-17.31049	3.37552	0.02161	3.35391
2334.94831	-16.77186	3.37604	0.02155	3.35448
2335.83133	-16.47353	3.37655	0.0215	3.35505
2336.71412	-17.18802	3.37707	0.02145	3.35562
2337.59668	-18.28443	3.37758	0.0214	3.35618
2338.479	-18.60102	3.3781	0.02135	3.35674
2339.36109	-18.06723	3.37861	0.0213	3.35731
2340.24294	-17.54335	3.37912	0.02125	3.35787
2341.12456	-17.48949	3.37963	0.0212	3.35843
2342.00595	-17.41135	3.38014	0.02116	3.35898
2342.8871	-17.24159	3.38065	0.02111	3.35954
2343.76802	-17.10698	3.38115	0.02106	3.3601
2344.6487	-17.1541	3.38166	0.02101	3.36065
2345.52915	-17.08856	3.38216	0.02096	3.3612
2346.40937	-17.293	3.38267	0.02091	3.36176
2347.28936	-17.72939	3.38317	0.02086	3.36231
2348.16911	-18.40714	3.38367	0.02082	3.36285
2349.04862	-18.70492	3.38417	0.02077	3.3634
2349.92791	-18.67175	3.38467	0.02072	3.36395
2350.80696	-18.33157	3.38516	0.02067	3.36449
2351.68578	-18.25044	3.38566	0.02063	3.36504
2352.56436	-18.39771	3.38616	0.02058	3.36558
2353.44271	-18.97333	3.38665	0.02053	3.36612
2354.32083	-19.25797	3.38714	0.02048	3.36666
2355.19872	-19.07479	3.38763	0.02044	3.3672
2356.07637	-18.66393	3.38812	0.02039	3.36773
2356.95379	-18.93983	3.38861	0.02035	3.36827
2357.83097	-19.18383	3.3891	0.0203	3.3688
2358.70793	-18.87104	3.38959	0.02025	3.36934
2359.58465	-18.16987	3.39008	0.02021	3.36987
2360.46114	-18.05956	3.39056	0.02016	3.3704
2361.33739	-18.53379	3.39104	0.02012	3.37093
2362.21341	-19.10381	3.39153	0.02007	3.37146
2363.0892	-18.95721	3.39201	0.02003	3.37198
2363.96476	-18.11211	3.39249	0.01998	3.37251
2364.84008	-17.42783	3.39297	0.01994	3.37303
2365.71518	-17.67802	3.39345	0.01989	3.37356
2366.59004	-18.28485	3.39393	0.01985	3.37408
2367.46466	-18.44991	3.3944	0.0198	3.3746
2368.33906	-17.96371	3.39488	0.01976	3.37512
2369.21322	-17.54093	3.39535	0.01972	3.37564
2370.08715	-17.45662	3.39582	0.01967	3.37615
2370.96085	-17.53222	3.3963	0.01963	3.37667
2371.83432	-16.91794	3.39677	0.01958	3.37718
2372.70755	-16.32953	3.39724	0.01954	3.3777
2373.58055	-16.51847	3.39771	0.0195	3.37821
2374.45332	-17.89457	3.39817	0.01945	3.37872
2375.32586	-18.77297	3.39864	0.01941	3.37923
2376.19817	-18.80748	3.39911	0.01937	3.37974
2377.07024	-17.97574	3.39957	0.01933	3.38025
2377.94208	-17.69071	3.40004	0.01928	3.38075
2378.81369	-17.7723	3.4005	0.01924	3.38126
2379.68507	-17.84857	3.40096	0.0192	3.38176
2380.55622	-17.62162	3.40142	0.01916	3.38226
2381.42713	-18.13805	3.40188	0.01912	3.38277
2382.29782	-19.26126	3.40234	0.01907	3.38327
2383.16827	-19.6254	3.4028	0.01903	3.38377
2384.03849	-19.12277	3.40326	0.01899	3.38426
2384.90848	-18.87574	3.40371	0.01895	3.38476
2385.77824	-19.20912	3.40417	0.01891	3.38526
2386.64776	-19.61529	3.40462	0.01887	3.38575
2387.51706	-19.18399	3.40507	0.01883	3.38624
2388.38612	-17.34608	3.40552	0.01879	3.38674
2389.25495	-14.12386	3.40597	0.01875	3.38723
2390.12355	-12.65064	3.40642	0.01871	3.38772
2390.99192	-13.92297	3.40687	0.01867	3.38821
2391.86006	-17.00408	3.40732	0.01863	3.3887
2392.72797	-18.72662	3.40777	0.01859	3.38918
2393.59565	-18.83167	3.40821	0.01855	3.38967
2394.4631	-17.50259	3.40866	0.01851	3.39015
2395.33031	-16.96127	3.4091	0.01847	3.39064
2396.19729	-17.57757	3.40955	0.01843	3.39112
2397.06405	-18.22001	3.40999	0.01839	3.3916
2397.93057	-17.31634	3.41043	0.01835	3.39208
2398.79686	-16.36085	3.41087	0.01831	3.39256
2399.66292	-17.08206	3.41131	0.01827	3.39304
2400.52875	-18.68809	3.41175	0.01823	3.39351
2401.39435	-19.31818	3.41218	0.01819	3.39399
2402.25972	-18.85683	3.41262	0.01816	3.39447
2403.12486	-18.4999	3.41306	0.01812	3.39494
2403.98977	-18.19043	3.41349	0.01808	3.39541
2404.85445	-17.7444	3.41392	0.01804	3.39588
2405.7189	-17.20886	3.41436	0.018	3.39635
2406.58312	-17.30492	3.41479	0.01797	3.39682
2407.4471	-17.67478	3.41522	0.01793	3.39729
2408.31086	-17.93823	3.41565	0.01789	3.39776
2409.17439	-17.49998	3.41608	0.01785	3.39823
2410.03768	-16.96013	3.41651	0.01782	3.39869
2410.90075	-16.93933	3.41693	0.01778	3.39916
2411.76359	-17.0995	3.41736	0.01774	3.39962
2412.62619	-16.92313	3.41779	0.0177	3.40008
2413.48857	-16.88679	3.41821	0.01767	3.40054
2414.35072	-17.69364	3.41863	0.01763	3.401
2415.21263	-18.58647	3.41906	0.01759	3.40146
2416.07432	-19.25789	3.41948	0.01756	3.40192
2416.93578	-19.37517	3.4199	0.01752	3.40238
2417.79701	-18.71581	3.42032	0.01749	3.40283
2418.65801	-17.30897	3.42074	0.01745	3.40329
2419.51877	-16.68711	3.42116	0.01741	3.40374
2420.37931	-17.25774	3.42157	0.01738	3.4042
2421.23962	-18.16428	3.42199	0.01734	3.40465
2422.0997	-18.19491	3.42241	0.01731	3.4051
2422.95955	-17.6267	3.42282	0.01727	3.40555
2423.81917	-17.07551	3.42324	0.01724	3.406
2424.67857	-17.15989	3.42365	0.0172	3.40645
2425.53773	-17.3993	3.42406	0.01717	3.4069
2426.39666	-17.45142	3.42447	0.01713	3.40734
2427.25536	-16.96897	3.42488	0.0171	3.40779
2428.11384	-16.42277	3.42529	0.01706	3.40823
2428.97209	-15.91261	3.4257	0.01703	3.40867
2429.8301	-15.92178	3.42611	0.01699	3.40912
2430.68789	-16.16497	3.42652	0.01696	3.40956
2431.54545	-16.60877	3.42692	0.01692	3.41
2432.40278	-16.8132	3.42733	0.01689	3.41044
2433.25988	-17.14162	3.42773	0.01685	3.41088
2434.11675	-17.47876	3.42814	0.01682	3.41131
2434.97339	-17.97718	3.42854	0.01679	3.41175
2435.82981	-18.30979	3.42894	0.01675	3.41219
2436.68599	-18.60173	3.42934	0.01672	3.41262
2437.54195	-18.50901	3.42974	0.01669	3.41306
2438.39768	-18.12044	3.43014	0.01665	3.41349
2439.25318	-17.65136	3.43054	0.01662	3.41392
2440.10845	-17.40051	3.43094	0.01659	3.41435
2440.96349	-17.14473	3.43134	0.01655	3.41478
2441.81831	-17.1768	3.43173	0.01652	3.41521
2442.67289	-17.85988	3.43213	0.01649	3.41564
2443.52725	-18.61836	3.43252	0.01645	3.41607
2444.38138	-18.4629	3.43292	0.01642	3.41649
2445.23528	-17.68747	3.43331	0.01639	3.41692
2446.08895	-17.24365	3.4337	0.01636	3.41734
2446.9424	-17.54555	3.43409	0.01632	3.41777
2447.79562	-18.22886	3.43448	0.01629	3.41819
2448.6486	-18.49028	3.43487	0.01626	3.41861
2449.50137	-17.6248	3.43526	0.01623	3.41903
2450.3539	-16.63719	3.43565	0.0162	3.41945
2451.2062	-16.88887	3.43604	0.01616	3.41987
2452.05828	-17.88233	3.43642	0.01613	3.42029
2452.91013	-18.16392	3.43681	0.0161	3.42071
2453.76175	-18.29719	3.4372	0.01607	3.42113
2454.61314	-19.24847	3.43758	0.01604	3.42154
2455.46431	-20.18689	3.43796	0.01601	3.42196
2456.31525	-20.1246	3.43835	0.01598	3.42237
2457.16596	-19.74703	3.43873	0.01594	3.42278
2458.01644	-19.71012	3.43911	0.01591	3.4232
2458.86669	-19.45045	3.43949	0.01588	3.42361
2459.71672	-18.71522	3.43987	0.01585	3.42402
2460.56652	-18.31621	3.44025	0.01582	3.42443
2461.41609	-18.43541	3.44063	0.01579	3.42484
2462.26544	-18.58737	3.44101	0.01576	3.42524
2463.11456	-18.56316	3.44138	0.01573	3.42565
2463.96345	-19.00851	3.44176	0.0157	3.42606
2464.81211	-19.56625	3.44213	0.01567	3.42646
2465.66055	-19.29947	3.44251	0.01564	3.42687
2466.50876	-18.331	3.44288	0.01561	3.42727
2467.35674	-18.22955	3.44325	0.01558	3.42768
2468.2045	-19.61164	3.44363	0.01555	3.42808
2469.05202	-20.98119	3.444	0.01552	3.42848
2469.89933	-20.68433	3.44437	0.01549	3.42888
2470.7464	-18.9827	3.44474	0.01546	3.42928
2471.59325	-17.5734	3.44511	0.01543	3.42968
2472.43987	-17.49835	3.44548	0.0154	3.43008
2473.28626	-18.07482	3.44584	0.01537	3.43047
2474.13243	-18.72771	3.44621	0.01534	3.43087
2474.97837	-19.45068	3.44658	0.01531	3.43126
2475.82408	-20.00423	3.44694	0.01528	3.43166
2476.66957	-19.59426	3.44731	0.01526	3.43205
2477.51483	-18.9639	3.44767	0.01523	3.43245
2478.35987	-19.48573	3.44804	0.0152	3.43284
2479.20467	-20.58309	3.4484	0.01517	3.43323
2480.04926	-20.91547	3.44876	0.01514	3.43362
2480.89361	-20.19255	3.44912	0.01511	3.43401
2481.73774	-19.52085	3.44948	0.01508	3.4344
2482.58164	-18.82879	3.44984	0.01506	3.43479
2483.42532	-18.54799	3.4502	0.01503	3.43518
2484.26877	-18.67557	3.45056	0.015	3.43556
2485.11199	-19.45012	3.45092	0.01497	3.43595
2485.95499	-19.98945	3.45128	0.01494	3.43633
2486.79776	-20.2523	3.45163	0.01492	3.43672
2487.64031	-20.05475	3.45199	0.01489	3.4371
2488.48263	-19.92188	3.45234	0.01486	3.43748
2489.32472	-19.89469	3.4527	0.01483	3.43787
2490.16659	-19.95095	3.45305	0.01481	3.43825
2491.00823	-19.37161	3.45341	0.01478	3.43863
2491.84965	-18.63768	3.45376	0.01475	3.43901
2492.69084	-18.42866	3.45411	0.01472	3.43939
2493.5318	-19.22398	3.45446	0.0147	3.43976
2494.37254	-19.78872	3.45481	0.01467	3.44014
2495.21306	-19.65204	3.45516	0.01464	3.44052
2496.05334	-18.81267	3.45551	0.01461	3.44089
2496.89341	-18.39654	3.45586	0.01459	3.44127
2497.73324	-18.2387	3.4562	0.01456	3.44164
2498.57285	-18.27234	3.45655	0.01453	3.44202
2499.41224	-18.12648	3.4569	0.01451	3.44239
2500.2514	-18.46303	3.45724	0.01448	3.44276
2501.09034	-18.79391	3.45759	0.01445	3.44313
2501.92905	-18.76365	3.45793	0.01443	3.4435
2502.76753	-18.41082	3.45828	0.0144	3.44387
2503.60579	-18.78701	3.45862	0.01438	3.44424
2504.44383	-19.7283	3.45896	0.01435	3.44461
2505.28164	-20.28962	3.4593	0.01432	3.44498
2506.11922	-19.88925	3.45964	0.0143	3.44535
2506.95658	-18.98536	3.45998	0.01427	3.44571
2507.79371	-18.47691	3.46032	0.01425	3.44608
2508.63062	-18.83938	3.46066	0.01422	3.44644
2509.46731	-19.77104	3.461	0.01419	3.44681
2510.30377	-20.38295	3.46134	0.01417	3.44717
2511.14	-20.22609	3.46168	0.01414	3.44753
2511.97601	-19.56028	3.46201	0.01412	3.4479
2512.8118	-19.04001	3.46235	0.01409	3.44826
2513.64736	-19.36363	3.46268	0.01407	3.44862
2514.4827	-20.47024	3.46302	0.01404	3.44898
2515.31781	-21.39271	3.46335	0.01402	3.44934
2516.1527	-21.01823	3.46369	0.01399	3.44969
2516.98736	-19.58717	3.46402	0.01397	3.45005
2517.8218	-18.47819	3.46435	0.01394	3.45041
2518.65601	-18.79129	3.46468	0.01392	3.45077
2519.49	-19.87419	3.46501	0.01389	3.45112
2520.32377	-20.27333	3.46534	0.01387	3.45148
2521.15731	-19.8737	3.46567	0.01384	3.45183
2521.99062	-19.6238	3.466	0.01382	3.45218
2522.82372	-19.57294	3.46633	0.01379	3.45254
2523.65659	-18.97228	3.46666	0.01377	3.45289
2524.48923	-18.38173	3.46699	0.01374	3.45324
2525.32165	-18.87018	3.46731	0.01372	3.45359
2526.15385	-19.77028	3.46764	0.0137	3.45394
2526.98582	-19.69197	3.46796	0.01367	3.45429
2527.81757	-18.84922	3.46829	0.01365	3.45464
2528.64909	-18.6102	3.46861	0.01362	3.45499
2529.4804	-18.91249	3.46894	0.0136	3.45534
2530.31147	-19.07703	3.46926	0.01358	3.45568
2531.14233	-19.13747	3.46958	0.01355	3.45603
2531.97296	-19.73943	3.4699	0.01353	3.45637
2532.80336	-20.4326	3.47022	0.0135	3.45672
2533.63354	-20.48441	3.47054	0.01348	3.45706
2534.4635	-19.98614	3.47086	0.01346	3.45741
2535.29324	-19.92459	3.47118	0.01343	3.45775
2536.12275	-20.27738	3.4715	0.01341	3.45809
2536.95204	-20.18346	3.47182	0.01339	3.45843
2537.7811	-19.26238	3.47214	0.01336	3.45877
2538.60995	-18.70386	3.47245	0.01334	3.45911
2539.43856	-19.20436	3.47277	0.01332	3.45945
2540.26696	-20.06575	3.47309	0.01329	3.45979
2541.09513	-19.98192	3.4734	0.01327	3.46013
2541.92308	-19.19975	3.47372	0.01325	3.46047
2542.75081	-18.91463	3.47403	0.01323	3.4608
2543.57831	-19.65125	3.47434	0.0132	3.46114
2544.40559	-20.35984	3.47466	0.01318	3.46148
2545.23264	-20.27703	3.47497	0.01316	3.46181
2546.05948	-19.64724	3.47528	0.01314	3.46215
2546.88609	-19.39697	3.47559	0.01311	3.46248
2547.71248	-19.62337	3.4759	0.01309	3.46281
2548.53864	-20.1351	3.47621	0.01307	3.46314
2549.36458	-20.37652	3.47652	0.01305	3.46348
2550.1903	-20.35057	3.47683	0.01302	3.46381
2551.0158	-20.20535	3.47714	0.013	3.46414
2551.84107	-20.19427	3.47745	0.01298	3.46447
2552.66613	-20.08682	3.47775	0.01296	3.4648
2553.49095	-19.81911	3.47806	0.01293	3.46513
2554.31556	-19.73179	3.47837	0.01291	3.46545
2555.13995	-19.86432	3.47867	0.01289	3.46578
2555.96411	-19.78998	3.47898	0.01287	3.46611
2556.78805	-19.28596	3.47928	0.01285	3.46644
2557.61176	-18.93126	3.47959	0.01283	3.46676
2558.43526	-18.96249	3.47989	0.0128	3.46709
2559.25853	-19.28383	3.48019	0.01278	3.46741
2560.08158	-19.6982	3.4805	0.01276	3.46773
2560.90441	-20.02205	3.4808	0.01274	3.46806
2561.72701	-19.88387	3.4811	0.01272	3.46838
2562.5494	-19.24962	3.4814	0.0127	3.4687
2563.37156	-18.54167	3.4817	0.01268	3.46902
2564.1935	-17.90208	3.482	0.01265	3.46934
2565.01521	-17.4942	3.4823	0.01263	3.46966
2565.83671	-17.69873	3.4826	0.01261	3.46998
2566.65798	-18.69146	3.48289	0.01259	3.4703
2567.47903	-19.83224	3.48319	0.01257	3.47062
2568.29986	-20.03954	3.48349	0.01255	3.47094
2569.12047	-19.25157	3.48378	0.01253	3.47126
2569.94086	-18.08534	3.48408	0.01251	3.47157
2570.76102	-17.72138	3.48438	0.01249	3.47189
2571.58097	-18.18778	3.48467	0.01247	3.47221
2572.40069	-18.90623	3.48496	0.01244	3.47252
2573.22019	-18.85545	3.48526	0.01242	3.47283
2574.03947	-18.52081	3.48555	0.0124	3.47315
2574.85852	-18.43271	3.48584	0.01238	3.47346
2575.67736	-18.82867	3.48614	0.01236	3.47377
2576.49597	-18.77717	3.48643	0.01234	3.47409
2577.31437	-18.16008	3.48672	0.01232	3.4744
2578.13254	-17.22054	3.48701	0.0123	3.47471
2578.95049	-17.08559	3.4873	0.01228	3.47502
2579.76822	-17.78688	3.48759	0.01226	3.47533
2580.58573	-18.70238	3.48788	0.01224	3.47564
2581.40301	-18.9405	3.48817	0.01222	3.47595
2582.22008	-18.46271	3.48846	0.0122	3.47625
2583.03692	-17.61046	3.48874	0.01218	3.47656
2583.85355	-16.76913	3.48903	0.01216	3.47687
2584.66995	-16.54347	3.48932	0.01214	3.47718
2585.48613	-16.87983	3.4896	0.01212	3.47748
2586.30209	-17.41827	3.48989	0.0121	3.47779
2587.11783	-17.26555	3.49017	0.01208	3.47809
2587.93335	-16.2779	3.49046	0.01206	3.4784
2588.74865	-15.06381	3.49074	0.01204	3.4787
2589.56373	-14.54978	3.49103	0.01202	3.479
2590.37859	-14.50095	3.49131	0.012	3.4793
2591.19322	-14.13523	3.49159	0.01198	3.47961
2592.00764	-13.76979	3.49187	0.01197	3.47991
2592.82183	-13.71531	3.49216	0.01195	3.48021
2593.63581	-13.65644	3.49244	0.01193	3.48051
2594.44956	-13.02854	3.49272	0.01191	3.48081
2595.2631	-12.01423	3.493	0.01189	3.48111
2596.07641	-10.69135	3.49328	0.01187	3.48141
2596.88951	-9.603	3.49356	0.01185	3.48171
2597.70238	-9.57173	3.49383	0.01183	3.482
2598.51503	-10.00319	3.49411	0.01181	3.4823
2599.32746	-9.8895	3.49439	0.01179	3.4826
2600.13968	-9.12436	3.49467	0.01177	3.48289
2600.95167	-8.70378	3.49494	0.01176	3.48319
2601.76344	-8.5223	3.49522	0.01174	3.48348
2602.57499	-8.32857	3.4955	0.01172	3.48378
2603.38633	-7.72441	3.49577	0.0117	3.48407
2604.19744	-6.69714	3.49605	0.01168	3.48437
2605.00833	-5.77939	3.49632	0.01166	3.48466
2605.819	-5.49663	3.4966	0.01164	3.48495
2606.62946	-5.64657	3.49687	0.01163	3.48524
2607.43969	-5.29332	3.49714	0.01161	3.48553
2608.2497	-4.53939	3.49741	0.01159	3.48583
2609.0595	-3.44152	3.49769	0.01157	3.48612
2609.86907	-2.244	3.49796	0.01155	3.48641
2610.67843	-0.97477	3.49823	0.01153	3.48669
2611.48756	-0.03084	3.4985	0.01152	3.48698
2612.29648	0.82752	3.49877	0.0115	3.48727
2613.10517	1.999	3.49904	0.01148	3.48756
2613.91365	3.30482	3.49931	0.01146	3.48785
2614.72191	4.4053	3.49958	0.01144	3.48813
2615.52994	5.34474	3.49985	0.01143	3.48842
2616.33776	6.80616	3.50011	0.01141	3.48871
2617.14536	8.49476	3.50038	0.01139	3.48899
2617.95274	9.73873	3.50065	0.01137	3.48928
2618.7599	10.15699	3.50091	0.01136	3.48956
2619.56684	10.20975	3.50118	0.01134	3.48984
2620.37356	10.03949	3.50145	0.01132	3.49013
2621.18007	9.87532	3.50171	0.0113	3.49041
2621.98635	10.21561	3.50198	0.01128	3.49069
2622.79242	11.11478	3.50224	0.01127	3.49097
2623.59826	12.02813	3.5025	0.01125	3.49125
2624.40389	12.64521	3.50277	0.01123	3.49154
2625.2093	13.25932	3.50303	0.01121	3.49182
2626.01449	13.90492	3.50329	0.0112	3.4921
2626.81946	14.51789	3.50356	0.01118	3.49237
2627.62421	15.05599	3.50382	0.01116	3.49265
2628.42875	15.51745	3.50408	0.01115	3.49293
2629.23306	16.00331	3.50434	0.01113	3.49321
2630.03716	16.73183	3.5046	0.01111	3.49349
2630.84103	17.94413	3.50486	0.01109	3.49376
2631.64469	19.29488	3.50512	0.01108	3.49404
2632.44813	20.05513	3.50538	0.01106	3.49432
2633.25136	19.31172	3.50564	0.01104	3.49459
2634.05436	17.52524	3.50589	0.01103	3.49487
2634.85714	15.80429	3.50615	0.01101	3.49514
2635.65971	15.03449	3.50641	0.01099	3.49542
2636.46206	15.09455	3.50667	0.01098	3.49569
2637.26419	15.67285	3.50692	0.01096	3.49596
2638.0661	15.80519	3.50718	0.01094	3.49624
2638.8678	14.69299	3.50743	0.01093	3.49651
2639.66927	12.68464	3.50769	0.01091	3.49678
2640.47053	11.02988	3.50794	0.01089	3.49705
2641.27157	10.38827	3.5082	0.01088	3.49732
2642.07239	10.30742	3.50845	0.01086	3.49759
2642.873	10.07201	3.50871	0.01084	3.49786
2643.67338	9.19151	3.50896	0.01083	3.49813
2644.47355	8.08652	3.50921	0.01081	3.4984
2645.2735	7.01234	3.50946	0.0108	3.49867
2646.07323	6.37336	3.50971	0.01078	3.49894
2646.87275	6.11578	3.50997	0.01076	3.4992
2647.67205	6.2405	3.51022	0.01075	3.49947
2648.47112	5.94567	3.51047	0.01073	3.49974
2649.26999	5.25974	3.51072	0.01071	3.5
2650.06863	4.66316	3.51097	0.0107	3.50027
2650.86706	4.17638	3.51122	0.01068	3.50053
2651.66527	3.41047	3.51147	0.01067	3.5008
2652.46326	2.21485	3.51171	0.01065	3.50106
2653.26103	1.09306	3.51196	0.01063	3.50133
2654.05859	0.04275	3.51221	0.01062	3.50159
2654.85593	-0.32361	3.51246	0.0106	3.50185
2655.65305	0.1669	3.5127	0.01059	3.50212
2656.44995	1.43741	3.51295	0.01057	3.50238
2657.24664	2.27552	3.5132	0.01056	3.50264
2658.04311	1.9945	3.51344	0.01054	3.5029
2658.83937	0.94948	3.51369	0.01052	3.50316
2659.6354	0.33774	3.51393	0.01051	3.50342
2660.43122	0.24443	3.51418	0.01049	3.50368
2661.22682	-0.08583	3.51442	0.01048	3.50394
2662.02221	-0.96511	3.51466	0.01046	3.5042
2662.81738	-1.58646	3.51491	0.01045	3.50446
2663.61233	-1.62107	3.51515	0.01043	3.50472
2664.40706	-1.71046	3.51539	0.01042	3.50498
2665.20158	-2.55654	3.51563	0.0104	3.50523
2665.99588	-3.67006	3.51588	0.01039	3.50549
2666.78997	-4.26372	3.51612	0.01037	3.50575
2667.58383	-4.43136	3.51636	0.01036	3.506
2668.37748	-4.66507	3.5166	0.01034	3.50626
2669.17092	-4.98026	3.51684	0.01032	3.50651
2669.96413	-5.40177	3.51708	0.01031	3.50677
2670.75714	-5.72876	3.51732	0.01029	3.50702
2671.54992	-5.98144	3.51756	0.01028	3.50728
2672.34249	-6.06517	3.5178	0.01026	3.50753
2673.13484	-6.7672	3.51803	0.01025	3.50778
2673.92698	-7.76091	3.51827	0.01024	3.50804
2674.71889	-8.60617	3.51851	0.01022	3.50829
2675.5106	-8.55859	3.51875	0.01021	3.50854
2676.30208	-8.49552	3.51898	0.01019	3.50879
2677.09335	-9.19876	3.51922	0.01018	3.50904
2677.88441	-10.87643	3.51946	0.01016	3.50929
2678.67525	-12.25122	3.51969	0.01015	3.50954
2679.46587	-13.01053	3.51993	0.01013	3.50979
2680.25627	-13.72305	3.52016	0.01012	3.51004
2681.04646	-14.56949	3.52039	0.0101	3.51029
2681.83644	-14.87006	3.52063	0.01009	3.51054
2682.62619	-14.52309	3.52086	0.01007	3.51079
2683.41574	-14.41234	3.5211	0.01006	3.51104
2684.20506	-15.06103	3.52133	0.01004	3.51128
2684.99417	-16.49982	3.52156	0.01003	3.51153
2685.78307	-17.8975	3.52179	0.01002	3.51178
2686.57175	-18.11041	3.52203	0.01	3.51202
2687.36021	-17.2575	3.52226	0.00999	3.51227
2688.14846	-16.69306	3.52249	0.00997	3.51251
2688.93649	-17.31762	3.52272	0.00996	3.51276
2689.7243	-17.98856	3.52295	0.00994	3.513
2690.5119	-18.1201	3.52318	0.00993	3.51325
2691.29929	-17.73998	3.52341	0.00992	3.51349
2692.08646	-17.48556	3.52364	0.0099	3.51373
2692.87341	-17.37669	3.52387	0.00989	3.51398
2693.66015	-17.77421	3.52409	0.00987	3.51422
2694.44668	-18.36697	3.52432	0.00986	3.51446
2695.23299	-18.86425	3.52455	0.00985	3.5147
2696.01908	-19.40069	3.52478	0.00983	3.51495
2696.80496	-20.38074	3.52501	0.00982	3.51519
2697.59062	-21.28758	3.52523	0.0098	3.51543
2698.37607	-21.34247	3.52546	0.00979	3.51567
2699.1613	-20.55628	3.52568	0.00978	3.51591
2699.94632	-19.54489	3.52591	0.00976	3.51615
2700.73112	-18.8305	3.52614	0.00975	3.51639
2701.51571	-18.98947	3.52636	0.00974	3.51662
2702.30008	-20.21728	3.52658	0.00972	3.51686
2703.08424	-21.85772	3.52681	0.00971	3.5171
2703.86818	-22.54623	3.52703	0.0097	3.51734
2704.65191	-22.01627	3.52726	0.00968	3.51757
2705.43542	-21.17943	3.52748	0.00967	3.51781
2706.21872	-21.12002	3.5277	0.00965	3.51805
2707.0018	-21.61929	3.52792	0.00964	3.51828
2707.78467	-22.25978	3.52815	0.00963	3.51852
2708.56733	-23.00858	3.52837	0.00961	3.51875
2709.34977	-23.82125	3.52859	0.0096	3.51899
2710.13199	-23.92533	3.52881	0.00959	3.51922
2710.914	-23.06195	3.52903	0.00957	3.51946
2711.6958	-22.2336	3.52925	0.00956	3.51969
2712.47738	-22.53916	3.52947	0.00955	3.51992
2713.25875	-23.5528	3.52969	0.00953	3.52016
2714.0399	-24.07291	3.52991	0.00952	3.52039
2714.82084	-23.60176	3.53013	0.00951	3.52062
2715.60157	-22.781	3.53035	0.0095	3.52085
2716.38208	-22.23113	3.53057	0.00948	3.52109
2717.16237	-22.37136	3.53079	0.00947	3.52132
2717.94245	-22.98487	3.531	0.00946	3.52155
2718.72232	-23.86377	3.53122	0.00944	3.52178
2719.50198	-24.52305	3.53144	0.00943	3.52201
2720.28142	-24.58226	3.53165	0.00942	3.52224
2721.06064	-23.85993	3.53187	0.0094	3.52247
2721.83965	-23.17253	3.53209	0.00939	3.5227
2722.61845	-23.16919	3.5323	0.00938	3.52292
2723.39704	-23.57693	3.53252	0.00937	3.52315
2724.17541	-23.84386	3.53273	0.00935	3.52338
2724.95356	-24.05516	3.53295	0.00934	3.52361
2725.73151	-23.98745	3.53316	0.00933	3.52384
2726.50924	-23.67532	3.53338	0.00931	3.52406
2727.28675	-23.55271	3.53359	0.0093	3.52429
2728.06405	-24.23128	3.5338	0.00929	3.52451
2728.84114	-24.81816	3.53402	0.00928	3.52474
2729.61802	-25.06959	3.53423	0.00926	3.52497
2730.39468	-25.15909	3.53444	0.00925	3.52519
2731.17113	-25.74945	3.53465	0.00924	3.52541
2731.94736	-26.44802	3.53487	0.00923	3.52564
2732.72338	-26.80233	3.53508	0.00921	3.52586
2733.49919	-26.1793	3.53529	0.0092	3.52609
2734.27478	-25.01994	3.5355	0.00919	3.52631
2735.05016	-24.53869	3.53571	0.00918	3.52653
2735.82533	-25.14692	3.53592	0.00916	3.52676
2736.60029	-25.96378	3.53613	0.00915	3.52698
2737.37503	-25.84161	3.53634	0.00914	3.5272
2738.14956	-25.05334	3.53655	0.00913	3.52742
2738.92387	-24.04085	3.53676	0.00912	3.52764
2739.69797	-23.49241	3.53697	0.0091	3.52786
2740.47186	-23.23935	3.53717	0.00909	3.52808
2741.24554	-23.96643	3.53738	0.00908	3.5283
2742.019	-25.38228	3.53759	0.00907	3.52852
2742.79225	-26.92087	3.5378	0.00906	3.52874
2743.56529	-27.10182	3.538	0.00904	3.52896
2744.33811	-26.47989	3.53821	0.00903	3.52918
2745.11073	-25.83465	3.53842	0.00902	3.5294
2745.88313	-25.86824	3.53862	0.00901	3.52962
2746.65531	-26.06777	3.53883	0.00899	3.52983
2747.42729	-26.41301	3.53903	0.00898	3.53005
2748.19905	-26.60442	3.53924	0.00897	3.53027
2748.9706	-26.76769	3.53944	0.00896	3.53049
2749.74193	-26.85826	3.53965	0.00895	3.5307
2750.51306	-27.07728	3.53985	0.00894	3.53092
2751.28397	-27.17194	3.54006	0.00892	3.53113
2752.05467	-27.15662	3.54026	0.00891	3.53135
2752.82515	-27.13292	3.54046	0.0089	3.53156
2753.59543	-27.29093	3.54067	0.00889	3.53178
2754.36549	-27.43942	3.54087	0.00888	3.53199
2755.13534	-27.07133	3.54107	0.00887	3.53221
2755.90497	-26.3047	3.54127	0.00885	3.53242
2756.6744	-25.71542	3.54148	0.00884	3.53263
2757.44361	-25.92289	3.54168	0.00883	3.53285
2758.21261	-26.55708	3.54188	0.00882	3.53306
2758.9814	-26.8074	3.54208	0.00881	3.53327
2759.74998	-26.2769	3.54228	0.0088	3.53349
2760.51834	-25.84599	3.54248	0.00878	3.5337
2761.2865	-26.30107	3.54268	0.00877	3.53391
2762.05444	-26.88075	3.54288	0.00876	3.53412
2762.82217	-26.56014	3.54308	0.00875	3.53433
2763.58968	-26.1907	3.54328	0.00874	3.53454
2764.35699	-26.70543	3.54348	0.00873	3.53475
2765.12408	-27.55833	3.54368	0.00872	3.53496
2765.89096	-27.60238	3.54388	0.0087	3.53517
2766.65763	-27.75134	3.54407	0.00869	3.53538
2767.42409	-28.57407	3.54427	0.00868	3.53559
2768.19034	-29.2014	3.54447	0.00867	3.5358
2768.95637	-28.33515	3.54467	0.00866	3.53601
2769.7222	-27.08094	3.54486	0.00865	3.53621
2770.48781	-27.01431	3.54506	0.00864	3.53642
2771.25321	-27.77985	3.54525	0.00863	3.53663
2772.0184	-27.64218	3.54545	0.00862	3.53684
2772.78338	-26.60683	3.54565	0.0086	3.53704
2773.54814	-26.34322	3.54584	0.00859	3.53725
2774.3127	-27.52338	3.54604	0.00858	3.53745
2775.07704	-28.7812	3.54623	0.00857	3.53766
2775.84117	-29.20574	3.54643	0.00856	3.53787
2776.6051	-29.07823	3.54662	0.00855	3.53807
2777.36881	-28.61635	3.54681	0.00854	3.53828
2778.13231	-27.58553	3.54701	0.00853	3.53848
2778.89559	-26.67849	3.5472	0.00852	3.53868
2779.65867	-26.90815	3.54739	0.00851	3.53889
2780.42154	-27.90557	3.54759	0.00849	3.53909
2781.18419	-28.49877	3.54778	0.00848	3.5393
2781.94664	-28.20263	3.54797	0.00847	3.5395
2782.70887	-27.58852	3.54816	0.00846	3.5397
2783.47089	-27.28531	3.54836	0.00845	3.5399
2784.2327	-27.4159	3.54855	0.00844	3.54011
2784.9943	-27.39348	3.54874	0.00843	3.54031
2785.75569	-26.89997	3.54893	0.00842	3.54051
2786.51687	-26.30832	3.54912	0.00841	3.54071
2787.27784	-26.24028	3.54931	0.0084	3.54091
2788.0386	-26.50591	3.5495	0.00839	3.54111
2788.79915	-26.79182	3.54969	0.00838	3.54131
2789.55949	-26.74362	3.54988	0.00837	3.54151
2790.31961	-26.30436	3.55007	0.00836	3.54171
2791.07953	-25.79969	3.55026	0.00835	3.54191
2791.83923	-25.87867	3.55045	0.00833	3.54211
2792.59873	-26.51539	3.55063	0.00832	3.54231
2793.35801	-27.111	3.55082	0.00831	3.54251
2794.11709	-27.73377	3.55101	0.0083	3.54271
2794.87595	-28.29902	3.5512	0.00829	3.5429
2795.63461	-28.53361	3.55138	0.00828	3.5431
2796.39305	-28.28799	3.55157	0.00827	3.5433
2797.15128	-28.38837	3.55176	0.00826	3.5435
2797.90931	-28.6619	3.55194	0.00825	3.54369
2798.66712	-28.44088	3.55213	0.00824	3.54389
2799.42472	-27.50149	3.55232	0.00823	3.54409
2800.18212	-26.86189	3.5525	0.00822	3.54428
2800.9393	-27.1649	3.55269	0.00821	3.54448
2801.69627	-27.93679	3.55287	0.0082	3.54467
2802.45304	-28.30094	3.55306	0.00819	3.54487
2803.20959	-28.31133	3.55324	0.00818	3.54506
2803.96594	-28.7973	3.55343	0.00817	3.54526
2804.72207	-29.69468	3.55361	0.00816	3.54545
2805.47799	-29.87788	3.5538	0.00815	3.54565
2806.23371	-28.81623	3.55398	0.00814	3.54584
2806.98921	-27.44328	3.55416	0.00813	3.54603
2807.74451	-27.10027	3.55435	0.00812	3.54623
2808.49959	-27.70929	3.55453	0.00811	3.54642
2809.25447	-28.13628	3.55471	0.0081	3.54661
2810.00914	-27.7342	3.55489	0.00809	3.5468
2810.76359	-27.43757	3.55507	0.00808	3.547
2811.51784	-28.01392	3.55526	0.00807	3.54719
2812.27188	-28.71581	3.55544	0.00806	3.54738
2813.02571	-28.69016	3.55562	0.00805	3.54757
2813.77933	-28.51053	3.5558	0.00804	3.54776
2814.53274	-29.11472	3.55598	0.00803	3.54795
2815.28594	-29.86407	3.55616	0.00802	3.54814
2816.03893	-29.656	3.55634	0.00801	3.54833
2816.79171	-28.80779	3.55652	0.008	3.54852
2817.54429	-28.47703	3.5567	0.00799	3.54871
2818.29665	-29.20591	3.55688	0.00798	3.5489
2819.04881	-30.08562	3.55706	0.00797	3.54909
2819.80075	-30.35984	3.55724	0.00796	3.54928
2820.55249	-29.44714	3.55742	0.00795	3.54947
2821.30402	-28.25396	3.5576	0.00794	3.54965
2822.05534	-27.55153	3.55777	0.00793	3.54984
2822.80645	-27.76145	3.55795	0.00792	3.55003
2823.55735	-28.02485	3.55813	0.00791	3.55022
2824.30804	-28.27048	3.55831	0.0079	3.5504
2825.05852	-28.57616	3.55848	0.00789	3.55059
2825.8088	-29.28107	3.55866	0.00789	3.55078
2826.55886	-29.78257	3.55884	0.00788	3.55096
2827.30872	-29.77686	3.55901	0.00787	3.55115
2828.05837	-29.36357	3.55919	0.00786	3.55133
2828.80781	-29.40751	3.55937	0.00785	3.55152
2829.55704	-29.57538	3.55954	0.00784	3.5517
2830.30607	-29.25536	3.55972	0.00783	3.55189
2831.05488	-28.84386	3.55989	0.00782	3.55207
2831.80349	-29.15413	3.56007	0.00781	3.55226
2832.55189	-29.50724	3.56024	0.0078	3.55244
2833.30008	-29.00391	3.56042	0.00779	3.55263
2834.04806	-28.51203	3.56059	0.00778	3.55281
2834.79583	-29.10972	3.56077	0.00777	3.55299
2835.54339	-30.1979	3.56094	0.00776	3.55318
2836.29075	-30.44212	3.56111	0.00775	3.55336
2837.0379	-29.65705	3.56129	0.00774	3.55354
2837.78484	-28.86412	3.56146	0.00774	3.55372
2838.53157	-28.83979	3.56163	0.00773	3.55391
2839.2781	-29.5393	3.5618	0.00772	3.55409
2840.02441	-30.10907	3.56198	0.00771	3.55427
2840.77052	-30.25099	3.56215	0.0077	3.55445
2841.51642	-30.07886	3.56232	0.00769	3.55463
2842.26211	-30.00396	3.56249	0.00768	3.55481
2843.0076	-29.97075	3.56266	0.00767	3.55499
2843.75287	-30.35223	3.56283	0.00766	3.55517
2844.49794	-30.91118	3.56301	0.00765	3.55535
2845.2428	-31.21501	3.56318	0.00764	3.55553
2845.98745	-31.01688	3.56335	0.00764	3.55571
2846.7319	-31.13903	3.56352	0.00763	3.55589
2847.47614	-31.7397	3.56369	0.00762	3.55607
2848.22017	-31.87192	3.56386	0.00761	3.55625
2848.96399	-31.3115	3.56403	0.0076	3.55643
2849.7076	-30.9372	3.5642	0.00759	3.55661
2850.45101	-31.72848	3.56436	0.00758	3.55678
2851.19421	-32.61728	3.56453	0.00757	3.55696
2851.9372	-32.84933	3.5647	0.00756	3.55714
2852.67999	-32.06665	3.56487	0.00755	3.55732
2853.42256	-31.59054	3.56504	0.00755	3.55749
2854.16493	-31.73448	3.56521	0.00754	3.55767
2854.9071	-32.44933	3.56537	0.00753	3.55785
2855.64905	-32.46885	3.56554	0.00752	3.55802
2856.3908	-32.1306	3.56571	0.00751	3.5582
2857.13234	-31.75525	3.56588	0.0075	3.55837
2857.87368	-31.74522	3.56604	0.00749	3.55855
2858.6148	-31.27193	3.56621	0.00748	3.55872
2859.35572	-30.68985	3.56638	0.00748	3.5589
2860.09643	-30.35877	3.56654	0.00747	3.55907
2860.83694	-30.87516	3.56671	0.00746	3.55925
2861.57724	-31.82991	3.56687	0.00745	3.55942
2862.31733	-32.79192	3.56704	0.00744	3.5596
2863.05721	-33.13281	3.5672	0.00743	3.55977
2863.79689	-32.85569	3.56737	0.00742	3.55994
2864.53636	-32.51802	3.56753	0.00742	3.56012
2865.27563	-32.6824	3.5677	0.00741	3.56029
2866.01469	-32.9657	3.56786	0.0074	3.56046
2866.75354	-32.95323	3.56803	0.00739	3.56064
2867.49218	-32.76604	3.56819	0.00738	3.56081
2868.23062	-33.00991	3.56835	0.00737	3.56098
2868.96885	-33.36853	3.56852	0.00736	3.56115
2869.70687	-33.70331	3.56868	0.00736	3.56132
2870.44469	-33.9824	3.56884	0.00735	3.56149
2871.1823	-34.11182	3.56901	0.00734	3.56167
2871.91971	-33.66016	3.56917	0.00733	3.56184
2872.6569	-32.84904	3.56933	0.00732	3.56201
2873.3939	-32.66695	3.56949	0.00731	3.56218
2874.13068	-33.12294	3.56965	0.00731	3.56235
2874.86726	-34.53709	3.56982	0.0073	3.56252
2875.60363	-37.00081	3.56998	0.00729	3.56269
2876.3398	-40.13659	3.57014	0.00728	3.56286
2877.07576	-40.87281	3.5703	0.00727	3.56303
2877.81151	-38.50175	3.57046	0.00726	3.5632
2878.54706	-34.82649	3.57062	0.00726	3.56336
2879.2824	-33.21451	3.57078	0.00725	3.56353
2880.01754	-33.62512	3.57094	0.00724	3.5637
2880.75247	-34.69756	3.5711	0.00723	3.56387
2881.48719	-34.54625	3.57126	0.00722	3.56404
2882.22171	-33.80361	3.57142	0.00721	3.5642
2882.95602	-33.24743	3.57158	0.00721	3.56437
2883.69013	-33.3134	3.57174	0.0072	3.56454
2884.42403	-33.45449	3.5719	0.00719	3.56471
2885.15772	-34.12187	3.57206	0.00718	3.56487
2885.89121	-34.91734	3.57221	0.00717	3.56504
2886.6245	-35.31121	3.57237	0.00717	3.56521
2887.35757	-34.94914	3.57253	0.00716	3.56537
2888.09044	-34.24587	3.57269	0.00715	3.56554
2888.82311	-33.57148	3.57285	0.00714	3.5657
2889.55557	-33.32086	3.573	0.00713	3.56587
2890.28782	-33.51402	3.57316	0.00713	3.56603
2891.01987	-33.59818	3.57332	0.00712	3.5662
2891.75172	-34.23374	3.57347	0.00711	3.56636
2892.48336	-35.45671	3.57363	0.0071	3.56653
2893.21479	-36.28569	3.57379	0.00709	3.56669
2893.94602	-35.34138	3.57394	0.00709	3.56686
2894.67704	-34.08006	3.5741	0.00708	3.56702
2895.40785	-33.81273	3.57425	0.00707	3.56718
2896.13846	-34.77891	3.57441	0.00706	3.56735
2896.86887	-35.31804	3.57456	0.00705	3.56751
2897.59907	-34.93716	3.57472	0.00705	3.56767
2898.32907	-33.92778	3.57487	0.00704	3.56784
2899.05886	-33.98551	3.57503	0.00703	3.568
2899.78844	-34.88039	3.57518	0.00702	3.56816
2900.51782	-35.64606	3.57534	0.00702	3.56832
2901.247	-35.13872	3.57549	0.00701	3.56848
2901.97597	-34.29145	3.57565	0.007	3.56865
2902.70473	-33.75005	3.5758	0.00699	3.56881
2903.43329	-34.3985	3.57595	0.00698	3.56897
2904.16165	-35.71525	3.57611	0.00698	3.56913
2904.8898	-36.9024	3.57626	0.00697	3.56929
2905.61775	-37.10679	3.57641	0.00696	3.56945
2906.34549	-36.75672	3.57657	0.00695	3.56961
2907.07302	-36.34587	3.57672	0.00695	3.56977
2907.80036	-36.29431	3.57687	0.00694	3.56993
2908.52748	-36.60082	3.57702	0.00693	3.57009
2909.2544	-36.74393	3.57717	0.00692	3.57025
2909.98112	-36.3595	3.57733	0.00692	3.57041
2910.70763	-35.87653	3.57748	0.00691	3.57057
2911.43394	-35.91865	3.57763	0.0069	3.57073
2912.16005	-36.38091	3.57778	0.00689	3.57089
2912.88595	-36.8659	3.57793	0.00689	3.57104
2913.61164	-37.07912	3.57808	0.00688	3.5712
2914.33713	-37.30967	3.57823	0.00687	3.57136
2915.06242	-37.67281	3.57838	0.00686	3.57152
2915.7875	-38.15148	3.57853	0.00686	3.57168
2916.51238	-38.08426	3.57868	0.00685	3.57183
2917.23705	-37.40428	3.57883	0.00684	3.57199
2917.96152	-36.14923	3.57898	0.00683	3.57215
2918.68579	-35.51759	3.57913	0.00683	3.5723
2919.40985	-36.21348	3.57928	0.00682	3.57246
2920.1337	-37.6882	3.57943	0.00681	3.57262
2920.85736	-38.12779	3.57958	0.0068	3.57277
2921.5808	-37.49784	3.57973	0.0068	3.57293
2922.30405	-36.98031	3.57987	0.00679	3.57308
2923.02709	-37.24124	3.58002	0.00678	3.57324
2923.74993	-37.64362	3.58017	0.00677	3.5734
2924.47256	-37.58717	3.58032	0.00677	3.57355
2925.19499	-37.06341	3.58047	0.00676	3.57371
2925.91721	-36.66474	3.58061	0.00675	3.57386
2926.63923	-36.90053	3.58076	0.00675	3.57401
2927.36105	-37.52098	3.58091	0.00674	3.57417
2928.08267	-38.1177	3.58105	0.00673	3.57432
2928.80408	-38.59536	3.5812	0.00672	3.57448
2929.52528	-38.8316	3.58135	0.00672	3.57463
2930.24628	-38.62617	3.58149	0.00671	3.57478
2930.96708	-38.15447	3.58164	0.0067	3.57494
2931.68768	-37.80883	3.58178	0.0067	3.57509
2932.40807	-37.55643	3.58193	0.00669	3.57524
2933.12826	-37.45543	3.58208	0.00668	3.5754
2933.84825	-37.27781	3.58222	0.00667	3.57555
2934.56803	-36.86865	3.58237	0.00667	3.5757
2935.28761	-36.74642	3.58251	0.00666	3.57585
2936.00698	-37.83156	3.58266	0.00665	3.576
2936.72615	-39.50334	3.5828	0.00665	3.57616
2937.44512	-40.25666	3.58295	0.00664	3.57631
2938.16389	-39.87298	3.58309	0.00663	3.57646
2938.88245	-39.23909	3.58323	0.00662	3.57661
2939.60081	-38.90398	3.58338	0.00662	3.57676
2940.31896	-38.81873	3.58352	0.00661	3.57691
2941.03691	-38.70085	3.58366	0.0066	3.57706
2941.75466	-38.5111	3.58381	0.0066	3.57721
2942.47221	-38.50676	3.58395	0.00659	3.57736
2943.18955	-38.82586	3.58409	0.00658	3.57751
2943.90669	-38.71541	3.58424	0.00658	3.57766
2944.62363	-38.19862	3.58438	0.00657	3.57781
2945.34037	-37.9846	3.58452	0.00656	3.57796
2946.0569	-38.477	3.58466	0.00655	3.57811
2946.77323	-39.01677	3.58481	0.00655	3.57826
2947.48935	-39.36144	3.58495	0.00654	3.57841
2948.20528	-39.66223	3.58509	0.00653	3.57856
2948.921	-39.84132	3.58523	0.00653	3.5787
2949.63652	-39.74898	3.58537	0.00652	3.57885
2950.35183	-39.3103	3.58551	0.00651	3.579
2951.06694	-38.72164	3.58565	0.00651	3.57915
2951.78185	-38.10853	3.58579	0.0065	3.5793
2952.49656	-37.90905	3.58594	0.00649	3.57944
2953.21107	-38.07186	3.58608	0.00649	3.57959
2953.92537	-38.13777	3.58622	0.00648	3.57974
2954.63947	-37.80539	3.58636	0.00647	3.57988
2955.35337	-37.43278	3.5865	0.00647	3.58003
2956.06706	-37.53142	3.58664	0.00646	3.58018
2956.78056	-37.70439	3.58678	0.00645	3.58032
2957.49385	-37.67437	3.58691	0.00645	3.58047
2958.20694	-37.51419	3.58705	0.00644	3.58061
2958.91982	-37.84293	3.58719	0.00643	3.58076
2959.63251	-38.30015	3.58733	0.00643	3.58091
2960.34499	-38.55834	3.58747	0.00642	3.58105
2961.05727	-38.52081	3.58761	0.00641	3.5812
2961.76934	-38.36202	3.58775	0.00641	3.58134
2962.48122	-37.81209	3.58789	0.0064	3.58149
2963.19289	-36.88103	3.58802	0.00639	3.58163
2963.90437	-36.28154	3.58816	0.00639	3.58177
2964.61563	-36.49576	3.5883	0.00638	3.58192
2965.3267	-37.35373	3.58844	0.00637	3.58206
2966.03757	-38.14566	3.58857	0.00637	3.58221
2966.74823	-38.60485	3.58871	0.00636	3.58235
2967.45869	-38.71824	3.58885	0.00635	3.58249
2968.16895	-38.59538	3.58898	0.00635	3.58264
2968.87901	-38.25523	3.58912	0.00634	3.58278
2969.58887	-37.95332	3.58926	0.00633	3.58292
2970.29852	-38.06661	3.58939	0.00633	3.58307
2971.00798	-38.3677	3.58953	0.00632	3.58321
2971.71723	-38.43336	3.58967	0.00631	3.58335
2972.42628	-38.33506	3.5898	0.00631	3.58349
2973.13513	-38.42165	3.58994	0.0063	3.58364
2973.84378	-38.76966	3.59007	0.0063	3.58378
2974.55222	-39.30701	3.59021	0.00629	3.58392
2975.26047	-40.2955	3.59034	0.00628	3.58406
2975.96851	-40.6253	3.59048	0.00628	3.5842
2976.67635	-39.58984	3.59061	0.00627	3.58434
2977.38399	-37.86406	3.59075	0.00626	3.58448
2978.09143	-37.70349	3.59088	0.00626	3.58462
2978.79867	-38.77988	3.59102	0.00625	3.58477
2979.5057	-39.42462	3.59115	0.00624	3.58491
2980.21254	-38.89214	3.59128	0.00624	3.58505
2980.91917	-38.4502	3.59142	0.00623	3.58519
2981.6256	-38.68924	3.59155	0.00623	3.58533
2982.33183	-38.68424	3.59168	0.00622	3.58547
2983.03787	-38.07091	3.59182	0.00621	3.5856
2983.74369	-37.54053	3.59195	0.00621	3.58574
2984.44932	-37.96627	3.59208	0.0062	3.58588
2985.15475	-38.9475	3.59222	0.00619	3.58602
2985.85998	-39.71074	3.59235	0.00619	3.58616
2986.565	-39.44055	3.59248	0.00618	3.5863
2987.26983	-37.9472	3.59261	0.00618	3.58644
2987.97445	-36.23223	3.59275	0.00617	3.58658
2988.67887	-35.79337	3.59288	0.00616	3.58671
2989.3831	-36.80467	3.59301	0.00616	3.58685
2990.08712	-37.92619	3.59314	0.00615	3.58699
2990.79094	-38.11183	3.59327	0.00614	3.58713
2991.49456	-37.74335	3.5934	0.00614	3.58727
2992.19798	-37.45093	3.59354	0.00613	3.5874
2992.9012	-37.74204	3.59367	0.00613	3.58754
2993.60422	-38.12853	3.5938	0.00612	3.58768
2994.30703	-38.25566	3.59393	0.00611	3.58781
2995.00965	-38.02292	3.59406	0.00611	3.58795
2995.71207	-38.02998	3.59419	0.0061	3.58809
2996.41428	-37.98823	3.59432	0.0061	3.58822
2997.1163	-37.67617	3.59445	0.00609	3.58836
2997.81812	-37.50361	3.59458	0.00608	3.5885
2998.51973	-37.75573	3.59471	0.00608	3.58863
2999.22115	-37.99654	3.59484	0.00607	3.58877
2999.92236	-37.7272	3.59497	0.00607	3.5889
3000.62338	-37.53913	3.5951	0.00606	3.58904
3001.32419	-37.84511	3.59523	0.00605	3.58917
3002.0248	-38.71413	3.59535	0.00605	3.58931
3002.72522	-39.17583	3.59548	0.00604	3.58944
3003.42543	-38.92377	3.59561	0.00604	3.58958
3004.12545	-38.43844	3.59574	0.00603	3.58971
3004.82526	-38.50468	3.59587	0.00602	3.58985
3005.52487	-38.65824	3.596	0.00602	3.58998
3006.22429	-38.48186	3.59612	0.00601	3.59011
3006.9235	-38.13362	3.59625	0.00601	3.59025
3007.62251	-38.18118	3.59638	0.006	3.59038
3008.32133	-38.67875	3.59651	0.00599	3.59051
3009.01994	-39.78456	3.59664	0.00599	3.59065
3009.71836	-40.60674	3.59676	0.00598	3.59078
3010.41657	-40.4204	3.59689	0.00598	3.59091
3011.11459	-39.10696	3.59702	0.00597	3.59105
3011.8124	-38.0884	3.59714	0.00596	3.59118
3012.51002	-37.73364	3.59727	0.00596	3.59131
3013.20743	-38.06267	3.5974	0.00595	3.59144
3013.90465	-38.5934	3.59752	0.00595	3.59158
3014.60167	-39.33667	3.59765	0.00594	3.59171
3015.29848	-39.80284	3.59777	0.00594	3.59184
3015.9951	-39.59393	3.5979	0.00593	3.59197
3016.69152	-38.65946	3.59803	0.00592	3.5921
3017.38774	-37.67243	3.59815	0.00592	3.59223
3018.08376	-37.48286	3.59828	0.00591	3.59236
3018.77958	-38.07138	3.5984	0.00591	3.5925
3019.4752	-39.22952	3.59853	0.0059	3.59263
3020.17062	-40.19699	3.59865	0.0059	3.59276
3020.86584	-40.5192	3.59878	0.00589	3.59289
3021.56087	-39.65476	3.5989	0.00588	3.59302
3022.25569	-38.76436	3.59903	0.00588	3.59315
3022.95031	-38.71072	3.59915	0.00587	3.59328
3023.64474	-39.783	3.59928	0.00587	3.59341
3024.33897	-40.56704	3.5994	0.00586	3.59354
3025.03299	-40.31402	3.59952	0.00586	3.59367
3025.72682	-39.33204	3.59965	0.00585	3.5938
3026.42045	-38.96133	3.59977	0.00584	3.59393
3027.11388	-39.43489	3.59989	0.00584	3.59405
3027.80711	-40.03709	3.60002	0.00583	3.59418
3028.50014	-40.23262	3.60014	0.00583	3.59431
3029.19298	-40.24362	3.60026	0.00582	3.59444
3029.88561	-40.29658	3.60039	0.00582	3.59457
3030.57805	-40.30486	3.60051	0.00581	3.5947
3031.27029	-40.19267	3.60063	0.00581	3.59483
3031.96232	-39.95902	3.60075	0.0058	3.59495
3032.65416	-39.95205	3.60088	0.00579	3.59508
3033.3458	-40.22253	3.601	0.00579	3.59521
3034.03725	-40.7524	3.60112	0.00578	3.59534
3034.72849	-40.91128	3.60124	0.00578	3.59546
3035.41954	-40.67508	3.60136	0.00577	3.59559
3036.11038	-40.25109	3.60149	0.00577	3.59572
3036.80103	-40.37832	3.60161	0.00576	3.59585
3037.49148	-40.67659	3.60173	0.00576	3.59597
3038.18173	-40.67093	3.60185	0.00575	3.5961
3038.87178	-40.35262	3.60197	0.00575	3.59623
3039.56164	-40.5196	3.60209	0.00574	3.59635
3040.25129	-41.18553	3.60221	0.00573	3.59648
3040.94075	-42.22938	3.60233	0.00573	3.5966
3041.63001	-43.21759	3.60245	0.00572	3.59673
3042.31907	-43.6668	3.60257	0.00572	3.59686
3043.00794	-43.15309	3.60269	0.00571	3.59698
3043.6966	-42.58813	3.60281	0.00571	3.59711
3044.38507	-42.59307	3.60293	0.0057	3.59723
3045.07334	-42.93781	3.60305	0.0057	3.59736
3045.76141	-42.91632	3.60317	0.00569	3.59748
3046.44928	-42.71224	3.60329	0.00569	3.59761
3047.13695	-42.68796	3.60341	0.00568	3.59773
3047.82443	-42.97193	3.60353	0.00568	3.59786
3048.51171	-43.27986	3.60365	0.00567	3.59798
3049.19879	-43.15804	3.60377	0.00566	3.5981
3049.88567	-42.52469	3.60389	0.00566	3.59823
3050.57236	-41.8057	3.60401	0.00565	3.59835
3051.25884	-42.04951	3.60412	0.00565	3.59848
3051.94513	-42.99539	3.60424	0.00564	3.5986
3052.63122	-43.88921	3.60436	0.00564	3.59872
3053.31712	-43.96825	3.60448	0.00563	3.59885
3054.00281	-43.71725	3.6046	0.00563	3.59897
3054.68831	-42.97183	3.60472	0.00562	3.59909
3055.37361	-42.3759	3.60483	0.00562	3.59922
3056.05871	-42.6662	3.60495	0.00561	3.59934
3056.74362	-43.9275	3.60507	0.00561	3.59946
3057.42833	-44.57088	3.60518	0.0056	3.59958
3058.11284	-44.09691	3.6053	0.0056	3.59971
3058.79715	-43.80943	3.60542	0.00559	3.59983
3059.48127	-44.81103	3.60554	0.00559	3.59995
3060.16519	-45.97947	3.60565	0.00558	3.60007
3060.84891	-45.799	3.60577	0.00558	3.60019
3061.53243	-44.61157	3.60589	0.00557	3.60032
3062.21576	-43.84521	3.606	0.00557	3.60044
3062.89888	-43.91857	3.60612	0.00556	3.60056
3063.58182	-44.46115	3.60623	0.00555	3.60068
3064.26455	-45.07401	3.60635	0.00555	3.6008
3064.94709	-45.28732	3.60647	0.00554	3.60092
3065.62943	-45.06185	3.60658	0.00554	3.60104
3066.31157	-44.83233	3.6067	0.00553	3.60116
3066.99352	-45.09722	3.60681	0.00553	3.60128
3067.67527	-45.60045	3.60693	0.00552	3.6014
3068.35682	-46.40183	3.60704	0.00552	3.60152
3069.03817	-46.8916	3.60716	0.00551	3.60164
3069.71933	-46.5065	3.60727	0.00551	3.60176
3070.40029	-45.34164	3.60739	0.0055	3.60188
3071.08105	-44.6195	3.6075	0.0055	3.602
3071.76162	-44.81096	3.60762	0.00549	3.60212
3072.44199	-45.57408	3.60773	0.00549	3.60224
3073.12217	-46.34718	3.60784	0.00548	3.60236
3073.80214	-46.95452	3.60796	0.00548	3.60248
3074.48192	-47.37049	3.60807	0.00547	3.6026
3075.16151	-47.65413	3.60819	0.00547	3.60272
3075.84089	-47.45556	3.6083	0.00546	3.60284
3076.52008	-47.0158	3.60841	0.00546	3.60295
3077.19908	-46.6764	3.60853	0.00545	3.60307
3077.87787	-47.05969	3.60864	0.00545	3.60319
3078.55647	-47.65862	3.60875	0.00544	3.60331
3079.23488	-47.82798	3.60887	0.00544	3.60343
3079.91308	-46.98401	3.60898	0.00543	3.60354
3080.5911	-46.15351	3.60909	0.00543	3.60366
3081.26891	-46.42999	3.6092	0.00542	3.60378
3081.94653	-47.54935	3.60932	0.00542	3.6039
3082.62395	-48.2522	3.60943	0.00541	3.60401
3083.30118	-48.08397	3.60954	0.00541	3.60413
3083.97821	-48.12618	3.60965	0.0054	3.60425
3084.65504	-48.84891	3.60977	0.0054	3.60437
3085.33167	-49.64999	3.60988	0.0054	3.60448
3086.00812	-49.40186	3.60999	0.00539	3.6046
3086.68436	-48.93767	3.6101	0.00539	3.60471
3087.36041	-49.24519	3.61021	0.00538	3.60483
3088.03626	-50.14178	3.61032	0.00538	3.60495
3088.71192	-50.53352	3.61043	0.00537	3.60506
3089.38738	-50.59552	3.61055	0.00537	3.60518
3090.06264	-50.94005	3.61066	0.00536	3.60529
3090.73771	-51.29813	3.61077	0.00536	3.60541
3091.41258	-50.97613	3.61088	0.00535	3.60553
3092.08726	-49.87251	3.61099	0.00535	3.60564
3092.76174	-49.11074	3.6111	0.00534	3.60576
3093.43602	-49.28137	3.61121	0.00534	3.60587
3094.11011	-49.72235	3.61132	0.00533	3.60599
3094.784	-49.27778	3.61143	0.00533	3.6061
3095.4577	-48.33727	3.61154	0.00532	3.60622
3096.1312	-47.96636	3.61165	0.00532	3.60633
3096.80451	-48.57409	3.61176	0.00531	3.60645
3097.47762	-49.71526	3.61187	0.00531	3.60656
3098.15053	-50.70482	3.61198	0.0053	3.60667
3098.82325	-51.08435	3.61209	0.0053	3.60679
3099.49578	-50.97548	3.6122	0.00529	3.6069
3100.1681	-50.82952	3.61231	0.00529	3.60702
3100.84024	-50.7886	3.61241	0.00529	3.60713
3101.51217	-50.62431	3.61252	0.00528	3.60724
3102.18392	-50.46247	3.61263	0.00528	3.60736
3102.85546	-50.55921	3.61274	0.00527	3.60747
3103.52681	-51.05649	3.61285	0.00527	3.60758
3104.19797	-51.7856	3.61296	0.00526	3.6077
3104.86893	-52.30271	3.61307	0.00526	3.60781
3105.53969	-52.31696	3.61317	0.00525	3.60792
3106.21026	-52.04883	3.61328	0.00525	3.60803
3106.88064	-52.25657	3.61339	0.00524	3.60815
3107.55082	-52.42517	3.6135	0.00524	3.60826
3108.2208	-51.7594	3.6136	0.00523	3.60837
3108.89059	-50.69082	3.61371	0.00523	3.60848
3109.56018	-51.07193	3.61382	0.00523	3.60859
3110.22958	-52.76325	3.61393	0.00522	3.60871
3110.89879	-53.66741	3.61403	0.00522	3.60882
3111.5678	-52.91298	3.61414	0.00521	3.60893
3112.23661	-51.94203	3.61425	0.00521	3.60904
3112.90523	-52.06286	3.61435	0.0052	3.60915
3113.57365	-52.70269	3.61446	0.0052	3.60926
3114.24188	-53.35386	3.61457	0.00519	3.60937
3114.90992	-53.6654	3.61467	0.00519	3.60949
3115.57776	-53.57743	3.61478	0.00518	3.6096
3116.2454	-53.10743	3.61489	0.00518	3.60971
3116.91285	-53.09008	3.61499	0.00518	3.60982
3117.58011	-53.66254	3.6151	0.00517	3.60993
3118.24717	-54.44209	3.6152	0.00517	3.61004
3118.91403	-54.99889	3.61531	0.00516	3.61015
3119.5807	-55.31278	3.61542	0.00516	3.61026
3120.24718	-55.31259	3.61552	0.00515	3.61037
3120.91346	-55.49998	3.61563	0.00515	3.61048
3121.57955	-56.01153	3.61573	0.00514	3.61059
3122.24544	-56.37029	3.61584	0.00514	3.6107
3122.91114	-55.68878	3.61594	0.00513	3.61081
3123.57665	-54.68883	3.61605	0.00513	3.61092
3124.24196	-54.28149	3.61615	0.00513	3.61103
3124.90707	-54.60462	3.61626	0.00512	3.61113
3125.572	-54.63568	3.61636	0.00512	3.61124
3126.23672	-54.47206	3.61647	0.00511	3.61135
3126.90125	-54.67624	3.61657	0.00511	3.61146
3127.56559	-55.65121	3.61667	0.0051	3.61157
3128.22974	-56.75197	3.61678	0.0051	3.61168
3128.89369	-57.65072	3.61688	0.0051	3.61179
3129.55744	-57.6513	3.61699	0.00509	3.61189
3130.22101	-57.04811	3.61709	0.00509	3.612
3130.88437	-56.29895	3.61719	0.00508	3.61211
3131.54755	-56.53656	3.6173	0.00508	3.61222
3132.21053	-57.27905	3.6174	0.00507	3.61233
3132.87331	-58.08496	3.6175	0.00507	3.61243
3133.5359	-58.1258	3.61761	0.00506	3.61254
3134.1983	-58.10136	3.61771	0.00506	3.61265
3134.86051	-58.00172	3.61781	0.00506	3.61276
3135.52252	-57.93533	3.61792	0.00505	3.61286
3136.18433	-57.30585	3.61802	0.00505	3.61297
3136.84595	-57.04848	3.61812	0.00504	3.61308
3137.50738	-57.47234	3.61822	0.00504	3.61318
3138.16862	-58.45645	3.61833	0.00503	3.61329
3138.82966	-59.0333	3.61843	0.00503	3.6134
3139.49051	-59.20419	3.61853	0.00503	3.6135
3140.15116	-59.17141	3.61863	0.00502	3.61361
3140.81162	-59.27336	3.61873	0.00502	3.61372
3141.47189	-59.85563	3.61884	0.00501	3.61382
3142.13196	-60.71887	3.61894	0.00501	3.61393
3142.79184	-61.27624	3.61904	0.005	3.61403
3143.45152	-60.99642	3.61914	0.005	3.61414
3144.11102	-60.75893	3.61924	0.005	3.61425
3144.77032	-60.79615	3.61934	0.00499	3.61435
3145.42942	-60.64617	3.61944	0.00499	3.61446
3146.08833	-59.66729	3.61955	0.00498	3.61456
3146.74705	-59.29908	3.61965	0.00498	3.61467
3147.40558	-59.89902	3.61975	0.00498	3.61477
3148.06391	-60.62074	3.61985	0.00497	3.61488
3148.72205	-60.45663	3.61995	0.00497	3.61498
3149.38	-60.81122	3.62005	0.00496	3.61509
3150.03775	-62.08245	3.62015	0.00496	3.61519
3150.69531	-63.39656	3.62025	0.00495	3.6153
3151.35267	-63.38709	3.62035	0.00495	3.6154
3152.00985	-62.56458	3.62045	0.00495	3.6155
3152.66683	-61.78655	3.62055	0.00494	3.61561
3153.32361	-61.51674	3.62065	0.00494	3.61571
3153.98021	-61.22557	3.62075	0.00493	3.61582
3154.63661	-61.09478	3.62085	0.00493	3.61592
3155.29282	-61.84571	3.62095	0.00493	3.61602
3155.94883	-63.51161	3.62105	0.00492	3.61613
3156.60465	-64.6434	3.62115	0.00492	3.61623
3157.26028	-64.64398	3.62125	0.00491	3.61633
3157.91572	-64.35088	3.62135	0.00491	3.61644
3158.57096	-64.73169	3.62144	0.00491	3.61654
3159.22601	-65.0435	3.62154	0.0049	3.61664
3159.88087	-64.48475	3.62164	0.0049	3.61675
3160.53554	-63.41151	3.62174	0.00489	3.61685
3161.19001	-63.14625	3.62184	0.00489	3.61695
3161.84429	-63.8636	3.62194	0.00488	3.61705
3162.49838	-64.61272	3.62204	0.00488	3.61716
3163.15227	-64.56576	3.62213	0.00488	3.61726
3163.80598	-64.1538	3.62223	0.00487	3.61736
3164.45949	-63.93459	3.62233	0.00487	3.61746
3165.1128	-64.10406	3.62243	0.00486	3.61756
3165.76593	-64.33965	3.62253	0.00486	3.61767
3166.41886	-64.80361	3.62262	0.00486	3.61777
3167.0716	-64.81993	3.62272	0.00485	3.61787
3167.72415	-64.69844	3.62282	0.00485	3.61797
3168.3765	-64.377	3.62292	0.00484	3.61807
3169.02867	-64.25432	3.62301	0.00484	3.61817
3169.68064	-63.59055	3.62311	0.00484	3.61827
3170.33242	-63.57732	3.62321	0.00483	3.61838
3170.984	-64.39584	3.6233	0.00483	3.61848
3171.6354	-65.59689	3.6234	0.00482	3.61858
3172.2866	-66.08705	3.6235	0.00482	3.61868
3172.93761	-66.14755	3.6236	0.00482	3.61878
3173.58843	-66.05635	3.62369	0.00481	3.61888
3174.23905	-65.60491	3.62379	0.00481	3.61898
3174.88948	-65.52007	3.62388	0.0048	3.61908
3175.53973	-65.82037	3.62398	0.0048	3.61918
3176.18978	-66.36145	3.62408	0.0048	3.61928
3176.83963	-66.17855	3.62417	0.00479	3.61938
3177.4893	-66.23114	3.62427	0.00479	3.61948
3178.13877	-66.48376	3.62436	0.00479	3.61958
3178.78805	-66.75986	3.62446	0.00478	3.61968
3179.43714	-66.67033	3.62456	0.00478	3.61978
3180.08604	-66.76143	3.62465	0.00477	3.61988
3180.73475	-66.56346	3.62475	0.00477	3.61998
3181.38326	-66.19322	3.62484	0.00477	3.62008
3182.03159	-66.36334	3.62494	0.00476	3.62018
3182.67972	-66.9701	3.62503	0.00476	3.62027
3183.32766	-66.37735	3.62513	0.00475	3.62037
3183.9754	-65.00301	3.62522	0.00475	3.62047
3184.62296	-64.77116	3.62532	0.00475	3.62057
3185.27033	-66.20958	3.62541	0.00474	3.62067
3185.9175	-67.43076	3.62551	0.00474	3.62077
3186.56448	-67.74762	3.6256	0.00474	3.62087
3187.21127	-67.58933	3.6257	0.00473	3.62096
3187.85787	-67.23473	3.62579	0.00473	3.62106
3188.50428	-66.58035	3.62588	0.00472	3.62116
3189.15049	-66.11976	3.62598	0.00472	3.62126
3189.79652	-66.4099	3.62607	0.00472	3.62136
3190.44235	-67.40914	3.62617	0.00471	3.62145
3191.08799	-68.61813	3.62626	0.00471	3.62155
3191.73344	-68.82144	3.62635	0.0047	3.62165
3192.3787	-68.05738	3.62645	0.0047	3.62175
3193.02377	-67.5029	3.62654	0.0047	3.62184
3193.66865	-67.97984	3.62663	0.00469	3.62194
3194.31333	-68.4029	3.62673	0.00469	3.62204
3194.95783	-68.54179	3.62682	0.00469	3.62214
3195.60213	-68.94503	3.62691	0.00468	3.62223
3196.24624	-69.82195	3.62701	0.00468	3.62233
3196.89016	-70.39338	3.6271	0.00467	3.62243
3197.5339	-70.48395	3.62719	0.00467	3.62252
3198.17743	-70.23703	3.62729	0.00467	3.62262
3198.82078	-70.08654	3.62738	0.00466	3.62271
3199.46394	-70.32315	3.62747	0.00466	3.62281
3200.10691	-70.72037	3.62756	0.00466	3.62291
3200.74968	-70.89377	3.62766	0.00465	3.623
3201.39227	-70.82155	3.62775	0.00465	3.6231
3202.03466	-71.05825	3.62784	0.00465	3.6232
3202.67687	-71.59925	3.62793	0.00464	3.62329
3203.31888	-71.78182	3.62802	0.00464	3.62339
3203.9607	-70.66078	3.62812	0.00463	3.62348
3204.60233	-68.90369	3.62821	0.00463	3.62358
3205.24377	-68.24557	3.6283	0.00463	3.62367
3205.88502	-69.16174	3.62839	0.00462	3.62377
3206.52608	-70.25179	3.62848	0.00462	3.62386
3207.16695	-70.52037	3.62857	0.00462	3.62396
3207.80763	-70.6678	3.62867	0.00461	3.62405
3208.44812	-71.35051	3.62876	0.00461	3.62415
3209.08841	-71.85201	3.62885	0.0046	3.62424
3209.72852	-71.20868	3.62894	0.0046	3.62434
3210.36844	-69.95523	3.62903	0.0046	3.62443
3211.00816	-69.73995	3.62912	0.00459	3.62453
3211.6477	-70.50015	3.62921	0.00459	3.62462
3212.28704	-71.12798	3.6293	0.00459	3.62472
3212.9262	-70.6415	3.62939	0.00458	3.62481
3213.56516	-69.85545	3.62948	0.00458	3.6249
3214.20394	-69.26515	3.62957	0.00458	3.625
3214.84252	-70.09697	3.62966	0.00457	3.62509
3215.48092	-71.90047	3.62975	0.00457	3.62518
3216.11912	-73.41183	3.62984	0.00457	3.62528
3216.75713	-73.36633	3.62993	0.00456	3.62537
3217.39496	-72.89447	3.63002	0.00456	3.62547
3218.03259	-72.79771	3.63011	0.00455	3.62556
3218.67004	-72.74131	3.6302	0.00455	3.62565
3219.30729	-72.45433	3.63029	0.00455	3.62575
3219.94435	-72.31124	3.63038	0.00454	3.62584
3220.58123	-72.69701	3.63047	0.00454	3.62593
3221.21791	-73.4642	3.63056	0.00454	3.62602
3221.8544	-74.57932	3.63065	0.00453	3.62612
3222.49071	-75.40806	3.63074	0.00453	3.62621
3223.12682	-75.33717	3.63083	0.00453	3.6263
3223.76275	-74.17948	3.63092	0.00452	3.62639
3224.39848	-72.76493	3.63101	0.00452	3.62649
3225.03403	-72.14558	3.63109	0.00452	3.62658
3225.66938	-72.60083	3.63118	0.00451	3.62667
3226.30455	-73.50278	3.63127	0.00451	3.62676
3226.93952	-74.05074	3.63136	0.00451	3.62686
3227.57431	-74.06871	3.63145	0.0045	3.62695
3228.2089	-73.59472	3.63154	0.0045	3.62704
3228.84331	-73.10369	3.63163	0.00449	3.62713
3229.47753	-73.20443	3.63171	0.00449	3.62722
3230.11156	-73.52348	3.6318	0.00449	3.62731
3230.74539	-73.38585	3.63189	0.00448	3.62741
3231.37904	-72.92534	3.63198	0.00448	3.6275
3232.0125	-72.9986	3.63207	0.00448	3.62759
3232.64577	-73.05099	3.63215	0.00447	3.62768
3233.27885	-72.65726	3.63224	0.00447	3.62777
3233.91174	-72.23682	3.63233	0.00447	3.62786
3234.54445	-72.0857	3.63242	0.00446	3.62795
3235.17696	-71.92272	3.6325	0.00446	3.62804
3235.80928	-71.74314	3.63259	0.00446	3.62813
3236.44142	-71.98868	3.63268	0.00445	3.62822
3237.07336	-72.07127	3.63276	0.00445	3.62831
3237.70512	-71.93311	3.63285	0.00445	3.6284
3238.33668	-71.93249	3.63294	0.00444	3.62849
3238.96806	-72.4126	3.63303	0.00444	3.62858
3239.59925	-73.0819	3.63311	0.00444	3.62867
3240.23025	-73.59061	3.6332	0.00443	3.62876
3240.86106	-73.82779	3.63328	0.00443	3.62885
3241.49168	-73.51685	3.63337	0.00443	3.62894
3242.12211	-73.08875	3.63346	0.00442	3.62903
3242.75236	-72.43288	3.63354	0.00442	3.62912
3243.38241	-72.00453	3.63363	0.00442	3.62921
3244.01228	-71.96136	3.63372	0.00441	3.6293
3244.64195	-72.58295	3.6338	0.00441	3.62939
3245.27144	-72.762	3.63389	0.00441	3.62948
3245.90074	-72.47689	3.63397	0.0044	3.62957
3246.52985	-72.48889	3.63406	0.0044	3.62966
3247.15877	-73.54535	3.63415	0.0044	3.62975
3247.7875	-74.72135	3.63423	0.00439	3.62984
3248.41605	-74.95196	3.63432	0.00439	3.62993
3249.0444	-74.41941	3.6344	0.00439	3.63002
3249.67257	-73.93617	3.63449	0.00438	3.6301
3250.30055	-74.05284	3.63457	0.00438	3.63019
3250.92834	-74.23779	3.63466	0.00438	3.63028
3251.55594	-74.18683	3.63474	0.00437	3.63037
3252.18335	-73.51069	3.63483	0.00437	3.63046
3252.81057	-72.28204	3.63491	0.00437	3.63055
3253.43761	-71.4114	3.635	0.00436	3.63063
3254.06446	-72.11122	3.63508	0.00436	3.63072
3254.69112	-73.98075	3.63517	0.00436	3.63081
3255.31759	-74.66023	3.63525	0.00435	3.6309
3255.94387	-73.58556	3.63534	0.00435	3.63098
3256.56996	-72.43436	3.63542	0.00435	3.63107
3257.19587	-72.9178	3.6355	0.00434	3.63116
3257.82158	-74.24185	3.63559	0.00434	3.63125
3258.44711	-75.09485	3.63567	0.00434	3.63133
3259.07245	-74.58742	3.63576	0.00433	3.63142
3259.69761	-73.14539	3.63584	0.00433	3.63151
3260.32257	-71.85681	3.63592	0.00433	3.6316
3260.94735	-71.91835	3.63601	0.00432	3.63168
3261.57194	-72.80317	3.63609	0.00432	3.63177
3262.19634	-73.38257	3.63617	0.00432	3.63186
3262.82055	-72.81953	3.63626	0.00431	3.63194
3263.44457	-71.51523	3.63634	0.00431	3.63203
3264.06841	-70.5061	3.63643	0.00431	3.63212
3264.69206	-70.84946	3.63651	0.00431	3.6322
3265.31552	-72.20669	3.63659	0.0043	3.63229
3265.93879	-72.80915	3.63667	0.0043	3.63238
3266.56187	-72.26114	3.63676	0.0043	3.63246
3267.18477	-71.62498	3.63684	0.00429	3.63255
3267.80748	-72.06299	3.63692	0.00429	3.63263
3268.43	-73.08412	3.63701	0.00429	3.63272
3269.05233	-74.25734	3.63709	0.00428	3.63281
3269.67448	-74.88245	3.63717	0.00428	3.63289
3270.29643	-74.31065	3.63725	0.00428	3.63298
3270.9182	-72.63181	3.63734	0.00427	3.63306
3271.53979	-71.29097	3.63742	0.00427	3.63315
3272.16118	-71.25405	3.6375	0.00427	3.63323
3272.78239	-72.05658	3.63758	0.00426	3.63332
3273.40341	-72.43218	3.63767	0.00426	3.6334
3274.02424	-72.35331	3.63775	0.00426	3.63349
3274.64489	-71.9749	3.63783	0.00425	3.63357
3275.26534	-71.84958	3.63791	0.00425	3.63366
3275.88561	-71.85229	3.63799	0.00425	3.63374
3276.50569	-72.90512	3.63807	0.00425	3.63383
3277.12559	-74.31559	3.63816	0.00424	3.63391
3277.7453	-75.08069	3.63824	0.00424	3.634
3278.36482	-74.15178	3.63832	0.00424	3.63408
3278.98415	-72.94337	3.6384	0.00423	3.63417
3279.60329	-72.65808	3.63848	0.00423	3.63425
3280.22225	-73.88758	3.63856	0.00423	3.63434
3280.84102	-75.49547	3.63864	0.00422	3.63442
3281.45961	-76.29313	3.63872	0.00422	3.6345
3282.078	-75.58054	3.63881	0.00422	3.63459
3282.69621	-74.37674	3.63889	0.00421	3.63467
3283.31424	-73.64099	3.63897	0.00421	3.63476
3283.93207	-73.20547	3.63905	0.00421	3.63484
3284.54972	-72.56219	3.63913	0.00421	3.63492
3285.16718	-72.19058	3.63921	0.0042	3.63501
3285.78446	-72.80573	3.63929	0.0042	3.63509
3286.40154	-73.64676	3.63937	0.0042	3.63517
3287.01844	-73.87518	3.63945	0.00419	3.63526
3287.63516	-72.87923	3.63953	0.00419	3.63534
3288.25168	-72.2687	3.63961	0.00419	3.63542
3288.86802	-73.14356	3.63969	0.00418	3.63551
3289.48417	-75.90852	3.63977	0.00418	3.63559
3290.10014	-77.59455	3.63985	0.00418	3.63567
3290.71592	-77.38127	3.63993	0.00418	3.63576
3291.33151	-75.54905	3.64001	0.00417	3.63584
3291.94692	-74.15974	3.64009	0.00417	3.63592
3292.56214	-73.39363	3.64017	0.00417	3.636
3293.17717	-73.95831	3.64025	0.00416	3.63609
3293.79201	-74.9957	3.64033	0.00416	3.63617
3294.40667	-75.61742	3.64041	0.00416	3.63625
3295.02115	-75.25843	3.64049	0.00415	3.63633
3295.63543	-74.87346	3.64057	0.00415	3.63642
3296.24953	-74.72236	3.64065	0.00415	3.6365
3296.86344	-74.35928	3.64072	0.00415	3.63658
3297.47717	-73.43432	3.6408	0.00414	3.63666
3298.09071	-72.52773	3.64088	0.00414	3.63674
3298.70406	-72.27269	3.64096	0.00414	3.63683
3299.31723	-72.67012	3.64104	0.00413	3.63691
3299.93021	-73.52617	3.64112	0.00413	3.63699
3300.54301	-74.36716	3.6412	0.00413	3.63707
3301.15561	-74.82234	3.64128	0.00412	3.63715
3301.76803	-74.34627	3.64135	0.00412	3.63723
3302.38027	-73.36275	3.64143	0.00412	3.63731
3302.99232	-73.1124	3.64151	0.00412	3.6374
3303.60418	-74.1864	3.64159	0.00411	3.63748
3304.21586	-75.44529	3.64167	0.00411	3.63756
3304.82735	-75.45452	3.64175	0.00411	3.63764
3305.43865	-74.82916	3.64182	0.0041	3.63772
3306.04977	-74.28942	3.6419	0.0041	3.6378
3306.66071	-73.93032	3.64198	0.0041	3.63788
3307.27145	-73.37316	3.64206	0.0041	3.63796
3307.88201	-73.22079	3.64213	0.00409	3.63804
3308.49239	-73.2796	3.64221	0.00409	3.63812
3309.10257	-73.3133	3.64229	0.00409	3.6382
3309.71258	-73.27024	3.64237	0.00408	3.63828
3310.32239	-73.84621	3.64244	0.00408	3.63836
3310.93202	-74.97041	3.64252	0.00408	3.63844
3311.54147	-75.80853	3.6426	0.00407	3.63852
3312.15073	-75.62081	3.64268	0.00407	3.6386
3312.7598	-75.05292	3.64275	0.00407	3.63868
3313.36869	-75.32867	3.64283	0.00407	3.63876
3313.97739	-76.18021	3.64291	0.00406	3.63884
3314.58591	-76.49995	3.64298	0.00406	3.63892
3315.19424	-75.56439	3.64306	0.00406	3.639
3315.80238	-74.19173	3.64314	0.00405	3.63908
3316.41034	-73.23548	3.64321	0.00405	3.63916
3317.01811	-73.38837	3.64329	0.00405	3.63924
3317.6257	-74.12867	3.64337	0.00405	3.63932
3318.2331	-74.90313	3.64344	0.00404	3.6394
3318.84032	-75.10055	3.64352	0.00404	3.63948
3319.44735	-74.97794	3.6436	0.00404	3.63956
3320.0542	-75.06901	3.64367	0.00404	3.63964
3320.66086	-75.54593	3.64375	0.00403	3.63972
3321.26733	-75.51214	3.64382	0.00403	3.63979
3321.87362	-74.45871	3.6439	0.00403	3.63987
3322.47972	-73.28849	3.64398	0.00402	3.63995
3323.08564	-73.00278	3.64405	0.00402	3.64003
3323.69138	-73.33403	3.64413	0.00402	3.64011
3324.29692	-73.6657	3.6442	0.00402	3.64019
3324.90229	-73.80795	3.64428	0.00401	3.64027
3325.50746	-74.03974	3.64435	0.00401	3.64034
3326.11246	-74.47379	3.64443	0.00401	3.64042
3326.71726	-75.04353	3.64451	0.004	3.6405
3327.32189	-75.11179	3.64458	0.004	3.64058
3327.92632	-74.30866	3.64466	0.004	3.64066
3328.53057	-73.1425	3.64473	0.004	3.64073
3329.13464	-72.34986	3.64481	0.00399	3.64081
3329.73852	-72.18071	3.64488	0.00399	3.64089
3330.34222	-72.25579	3.64496	0.00399	3.64097
3330.94573	-72.37914	3.64503	0.00398	3.64105
3331.54906	-72.62085	3.64511	0.00398	3.64112
3332.1522	-73.16728	3.64518	0.00398	3.6412
3332.75516	-73.49347	3.64525	0.00398	3.64128
3333.35793	-73.06158	3.64533	0.00397	3.64136
3333.96051	-72.53274	3.6454	0.00397	3.64143
3334.56292	-72.96454	3.64548	0.00397	3.64151
3335.16513	-74.12567	3.64555	0.00397	3.64159
3335.76717	-74.72492	3.64563	0.00396	3.64166
3336.36902	-74.69608	3.6457	0.00396	3.64174
3336.97068	-74.7024	3.64578	0.00396	3.64182
3337.57216	-75.14382	3.64585	0.00395	3.64189
3338.17345	-75.15276	3.64592	0.00395	3.64197
3338.77456	-74.70399	3.646	0.00395	3.64205
3339.37548	-74.29606	3.64607	0.00395	3.64212
3339.97622	-74.58643	3.64614	0.00394	3.6422
3340.57678	-74.68567	3.64622	0.00394	3.64228
3341.17715	-74.1547	3.64629	0.00394	3.64235
3341.77734	-73.69596	3.64637	0.00394	3.64243
3342.37734	-74.2801	3.64644	0.00393	3.64251
3342.97716	-75.08961	3.64651	0.00393	3.64258
3343.57679	-74.96443	3.64659	0.00393	3.64266
3344.17624	-74.40617	3.64666	0.00393	3.64273
3344.7755	-74.8967	3.64673	0.00392	3.64281
3345.37458	-76.25505	3.64681	0.00392	3.64289
3345.97348	-77.09493	3.64688	0.00392	3.64296
3346.57219	-76.47498	3.64695	0.00391	3.64304
3347.17072	-75.19901	3.64702	0.00391	3.64311
3347.76906	-74.13076	3.6471	0.00391	3.64319
3348.36722	-73.71766	3.64717	0.00391	3.64326
3348.96519	-73.70888	3.64724	0.0039	3.64334
3349.56298	-74.18015	3.64732	0.0039	3.64341
3350.16059	-74.81991	3.64739	0.0039	3.64349
3350.75801	-75.07116	3.64746	0.0039	3.64356
3351.35525	-74.79977	3.64753	0.00389	3.64364
3351.9523	-74.7015	3.64761	0.00389	3.64371
3352.54917	-74.75277	3.64768	0.00389	3.64379
3353.14586	-74.54101	3.64775	0.00389	3.64386
3353.74236	-74.07006	3.64782	0.00388	3.64394
3354.33868	-73.96817	3.64789	0.00388	3.64401
3354.93481	-74.13611	3.64797	0.00388	3.64409
3355.53076	-74.54056	3.64804	0.00388	3.64416
3356.12653	-75.16483	3.64811	0.00387	3.64424
3356.72211	-75.95942	3.64818	0.00387	3.64431
3357.31751	-76.49269	3.64825	0.00387	3.64439
3357.91272	-76.55897	3.64833	0.00386	3.64446
3358.50775	-75.97801	3.6484	0.00386	3.64454
3359.1026	-75.08507	3.64847	0.00386	3.64461
3359.69726	-74.34364	3.64854	0.00386	3.64468
3360.29174	-73.81731	3.64861	0.00385	3.64476
3360.88604	-73.51741	3.64868	0.00385	3.64483
3361.48015	-73.83914	3.64875	0.00385	3.64491
3362.07408	-74.86553	3.64883	0.00385	3.64498
3362.66782	-75.3914	3.6489	0.00384	3.64505
3363.26138	-75.02882	3.64897	0.00384	3.64513
3363.85476	-74.10924	3.64904	0.00384	3.6452
3364.44796	-73.48795	3.64911	0.00384	3.64527
3365.04097	-73.10187	3.64918	0.00383	3.64535
3365.6338	-73.15794	3.64925	0.00383	3.64542
3366.22644	-73.03895	3.64932	0.00383	3.64549
3366.8189	-72.53941	3.64939	0.00383	3.64557
3367.41118	-71.989	3.64946	0.00382	3.64564
3368.00327	-72.19296	3.64953	0.00382	3.64571
3368.59518	-72.60409	3.64961	0.00382	3.64579
3369.18691	-72.81148	3.64968	0.00382	3.64586
3369.77845	-72.75393	3.64975	0.00381	3.64593
3370.36981	-72.7769	3.64982	0.00381	3.64601
3370.96099	-72.58715	3.64989	0.00381	3.64608
3371.55199	-72.96756	3.64996	0.00381	3.64615
3372.1428	-73.79296	3.65003	0.0038	3.64622
3372.73343	-74.08868	3.6501	0.0038	3.6463
3373.32387	-72.98566	3.65017	0.0038	3.64637
3373.91413	-72.61642	3.65024	0.0038	3.64644
3374.50421	-74.05446	3.65031	0.00379	3.64651
3375.09411	-75.82803	3.65038	0.00379	3.64659
3375.68382	-75.7709	3.65045	0.00379	3.64666
3376.27335	-74.85779	3.65052	0.00379	3.64673
3376.8627	-74.27941	3.65059	0.00378	3.6468
3377.45186	-74.1456	3.65065	0.00378	3.64687
3378.04084	-74.22035	3.65072	0.00378	3.64695
3378.62964	-74.74079	3.65079	0.00378	3.64702
3379.21825	-75.11481	3.65086	0.00377	3.64709
3379.80669	-75.07969	3.65093	0.00377	3.64716
3380.39493	-75.00162	3.651	0.00377	3.64723
3380.983	-74.58643	3.65107	0.00377	3.6473
3381.57089	-73.39036	3.65114	0.00376	3.64738
3382.15859	-72.59262	3.65121	0.00376	3.64745
3382.74611	-73.41394	3.65128	0.00376	3.64752
3383.33344	-74.70531	3.65135	0.00376	3.64759
3383.92059	-75.06131	3.65141	0.00375	3.64766
3384.50756	-74.56578	3.65148	0.00375	3.64773
3385.09435	-74.14579	3.65155	0.00375	3.6478
3385.68096	-73.71772	3.65162	0.00375	3.64787
3386.26738	-73.69922	3.65169	0.00374	3.64795
3386.85362	-74.11966	3.65176	0.00374	3.64802
3387.43968	-74.74206	3.65183	0.00374	3.64809
3388.02555	-74.98148	3.65189	0.00374	3.64816
3388.61125	-75.44591	3.65196	0.00373	3.64823
3389.19676	-75.95971	3.65203	0.00373	3.6483
3389.78208	-76.08174	3.6521	0.00373	3.64837
3390.36723	-75.51177	3.65217	0.00373	3.64844
3390.95219	-74.82992	3.65224	0.00372	3.64851
3391.53697	-74.27903	3.6523	0.00372	3.64858
3392.12157	-74.19395	3.65237	0.00372	3.64865
3392.70599	-74.4804	3.65244	0.00372	3.64872
3393.29022	-74.26299	3.65251	0.00372	3.64879
3393.87428	-73.21145	3.65257	0.00371	3.64886
3394.45815	-72.23305	3.65264	0.00371	3.64893
3395.04183	-72.48203	3.65271	0.00371	3.649
3395.62534	-73.38477	3.65278	0.00371	3.64907
3396.20866	-73.89623	3.65284	0.0037	3.64914
3396.7918	-73.70919	3.65291	0.0037	3.64921
3397.37476	-73.55191	3.65298	0.0037	3.64928
3397.95754	-73.66671	3.65305	0.0037	3.64935
3398.54013	-73.84086	3.65311	0.00369	3.64942
3399.12255	-73.79332	3.65318	0.00369	3.64949
3399.70478	-73.51658	3.65325	0.00369	3.64956
3400.28683	-73.11096	3.65332	0.00369	3.64963
3400.86869	-73.16184	3.65338	0.00368	3.6497
3401.45038	-73.80275	3.65345	0.00368	3.64977
3402.03188	-74.17249	3.65352	0.00368	3.64984
3402.6132	-73.86883	3.65358	0.00368	3.64991
3403.19434	-73.67198	3.65365	0.00367	3.64997
3403.7753	-74.1354	3.65372	0.00367	3.65004
3404.35608	-74.24556	3.65378	0.00367	3.65011
3404.93667	-74.00083	3.65385	0.00367	3.65018
3405.51709	-73.94147	3.65392	0.00367	3.65025
3406.09732	-74.40412	3.65398	0.00366	3.65032
3406.67737	-74.58856	3.65405	0.00366	3.65039
3407.25723	-74.70532	3.65412	0.00366	3.65046
3407.83692	-75.23436	3.65418	0.00366	3.65053
3408.41642	-76.0489	3.65425	0.00365	3.65059
